Timestamp,Fp1,Fp2,F7,F8,T3,T4,T5,T6,O1,O2
0.0,-0.36639333299932036,-1.2616839804910172,-0.15328854920192006,-1.2773044835203595,-0.09261146885272763,0.9457171067409103,0.5160116944750281,-0.4135985088394509,0.8637527301520532,0.5216451097242675
0.1,5.7008257212869236,5.20836972486177,4.009865865543728,6.676807089562171,6.847444283721371,5.150542362038265,5.392820748902627,5.582629122404758,5.357971419229163,5.648938346993183
0.2,8.212894784547089,9.487374811833597,11.628137403114838,9.982787474465427,9.914023885555011,9.901911380843528,8.974090827773475,10.172105088664159,9.36978030327873,10.070090649943392
0.30000000000000004,10.555156079200707,10.114907729058668,8.798520181015425,9.176517065044928,10.188541222574656,10.967660452630948,8.176549672657794,9.930067930294417,9.24964428566262,8.795768795264625
0.4,6.643100366266859,5.908801322301143,5.504230557987221,5.188654268601348,6.290610893798273,6.005864434731228,5.878748348475015,6.606602156978552,6.073135347420131,6.795802804146668
0.5,1.687120870335121,-1.4027032972720694,-0.17350540446567456,0.784552898872305,2.3352258978013185,1.3911881735917992,-0.3064747924349898,0.23712297912375815,-1.600804338210928,0.21632351875566885
0.6000000000000001,-5.59193567081901,-6.2344635712484875,-5.952160464543928,-4.977915906029686,-4.03079438856758,-4.810325474880557,-6.624919008853559,-6.097131300589817,-6.167674590374193,-6.807518179844041
0.7000000000000001,-10.774391070925645,-8.989418892605489,-10.09884664169226,-9.993523136467287,-9.822355348406065,-8.742944361807025,-8.781698895044102,-9.941506180766357,-8.878305006453061,-10.207122314388888
0.8,-9.49664089919836,-10.956189914898577,-9.640238257986308,-10.099809330005137,-7.588201954911357,-8.705759242204097,-9.658981796706556,-9.274601497535471,-9.895447142407354,-9.474024032442419
0.9,-6.51317072214059,-6.984818465923043,-6.220036176092732,-6.068764415552986,-6.1797799361562085,-4.366402302213972,-6.274597757915898,-5.33097388253155,-5.690121759407286,-6.6752323455030185
1.0,-1.913163508280598,-0.869948795955191,-1.2197459137376605,-1.5883266480346796,0.37068871018849164,1.6159173035198011,0.3726959374387521,-0.21377364435596766,0.24115981679884735,0.670540534423763
1.1,6.38765768648713,5.843442303039422,6.888668018310582,5.545599973321059,5.666367962880259,4.791054240600898,4.916072622528558,4.534328955332046,3.9396240329460435,4.9576922085826665
1.2000000000000002,7.86366576244049,7.298256282175421,9.2985325202548,10.4022597572134,9.812441408463895,11.28772884046314,9.285266234104347,10.698902684207864,8.549847812408066,8.029229322194793
1.3,8.554311832595513,11.03326534460923,11.432677424415818,9.33319589252149,8.375336091725707,10.649146275057099,9.710821817371656,9.034431524856705,8.830449536839565,9.998595308161253
1.4000000000000001,5.522556475213773,5.875373539519774,7.602380684614996,2.92683194154023,5.901525933305443,6.698364367446559,4.982357579306476,5.179419500257891,6.293051154166328,7.456005186040489
1.5,0.2230146649098087,-0.8316822509975174,-0.6731426538504875,1.3653410244751127,-0.7419560551019818,-0.43159577868772797,-0.8675247791503629,-1.0359595365911056,-1.574107905163895,-0.05775282514962627
1.6,-7.303214128332251,-5.439059298588842,-4.525320223404272,-6.128854876288065,-7.338209127358921,-6.267347350767065,-5.648679696276618,-4.645885687206258,-7.971565488742993,-4.691548720454904
1.7000000000000002,-7.757825000957132,-8.616631800141437,-9.327749554159826,-9.014718078906203,-10.938726235693087,-8.253304971762793,-10.088796829717905,-9.567436794557102,-12.21514375321405,-9.203040004188868
1.8,-8.019786964599206,-8.839976559685235,-9.98543464857681,-11.81286508238989,-11.075980188414192,-10.867400303729038,-11.327176644247455,-9.53840550806092,-9.068722788395302,-9.258225161502494
1.9000000000000001,-5.47794097215899,-4.368127540236194,-3.688203920636393,-7.114303344354118,-7.471893981346442,-5.542865959456928,-5.522762633749826,-7.09497258415059,-7.322269977627646,-6.65013161535143
2.0,-0.8605302849267628,0.20282423677975744,-1.2599354301299652,0.7831394303113324,0.9133053266767427,-2.1790030688790525,0.3084388922817615,0.4551315109123418,-0.2926969390171023,-0.8332797424764301
2.1,5.50987062888002,4.405416330749324,5.595480025850822,6.097912922829899,7.2825145598075505,6.032692199073747,5.5072173329994945,6.989048529556393,4.805966980845292,4.5837090744359354
2.2,11.643525955809572,9.979040055586436,10.485029290198055,9.285708974446411,8.16996704474785,9.234031402266972,9.343976379701584,10.267034651432786,11.008204487961194,9.938776574329973
2.3000000000000003,10.462329084379721,8.748998402356872,8.976741356956653,9.92410027176664,10.770026377440034,10.461788561765118,10.606766943058252,10.399652232232057,9.274298702874203,9.099264430787745
2.4000000000000004,6.707513733765747,5.840849013837348,5.4763723512202676,4.4157342712281356,6.051221659968443,4.58918756149398,3.9494019971008045,5.449207915643454,7.211512103878137,7.233268017426276
2.5,0.13497407268305608,-1.8655997120429642,1.2738464256665214,0.08768444938532868,-1.4355924075246742,1.0596246663390367,1.2047537540681343,-0.400861228704621,0.22557634389845507,0.6021634950172394
2.6,-6.600885914229963,-6.232365029184105,-5.878632946809374,-6.624482030037566,-7.516362158864851,-5.541813757014247,-6.116884268149245,-6.024171602591202,-6.574360431055603,-6.7517250029393105
2.7,-8.840563595823744,-9.286055325346485,-10.391979641197157,-8.802965650677457,-10.479364901636648,-9.240838787488133,-9.38800178849661,-9.754996969978293,-8.938782490173132,-9.096387391835057
2.8000000000000003,-9.161025688574185,-11.05985374206414,-8.336107793058993,-5.779502768709365,-9.743670350037744,-10.232137365459128,-10.335340316596298,-11.146484776412303,-9.723581106083687,-9.731904409248342
2.9000000000000004,-6.672909269416802,-5.7303902379205045,-4.176733262799474,-4.724744489058426,-4.293502759542859,-4.64849703226567,-5.3675059067949835,-5.136740137293719,-5.275817753532997,-6.581517716520075
3.0,-0.7152128590981965,1.0102177061923103,1.3354839088988204,-1.0046283723130274,0.13627308513956632,-0.5283242296794327,0.41222959876674237,-1.155024830740341,0.46042331899692995,0.46690486589607505
3.1,5.567646015180552,5.916857188352421,7.143398753323316,5.942685232926919,6.877269231670022,5.325488360607253,6.551957222263704,7.057097790306167,5.032818925209991,5.925649454431949
3.2,8.738294584438089,9.25018752434725,11.983104545817195,9.354622435173384,9.477489908799335,8.315940089675815,8.254798491218835,11.48143569587299,10.916616922512102,8.225942842334755
3.3000000000000003,9.61077764980578,7.923181532546864,9.059471974823309,8.625957138658467,7.75017302717299,9.956586597476878,9.53047535608974,11.279808969730507,10.353305786823563,7.658954097444132
3.4000000000000004,4.536379234438234,6.3534625813882215,5.254731880218271,5.844582544242586,4.820583136213564,5.776573119837548,5.17136238111218,7.488697357811857,5.835626949756582,8.780805821277564
3.5,0.8156062610763397,-0.36558882286728556,-0.7670700493470656,0.7432704676631837,0.7100789103869607,0.8672023046082097,-1.1057295615350047,1.6060645579160149,-0.8687482618401584,0.017765266810160055
3.6,-5.8402684651783305,-6.377029721005352,-6.2039503800165585,-4.178377924384176,-6.81490389627343,-7.183808066788357,-6.131771794449026,-6.784824823766012,-4.88004187398489,-5.974813783562401
3.7,-9.052333679894017,-8.48525548382502,-9.698200900705498,-8.474952724237784,-9.05847067059598,-9.804598387992936,-8.885240617433372,-10.095903654336587,-8.741767058740308,-8.51050435273783
3.8000000000000003,-8.632668797087305,-8.076109703399181,-8.70054088227103,-10.126774800782051,-10.480995520200718,-9.175009723910822,-9.289796564384632,-7.982511765091267,-9.350476474914801,-8.560381322173244
3.9000000000000004,-7.190584455428713,-4.32689898876003,-8.036880694205092,-5.044766483306326,-5.722123585098908,-7.207409530589424,-4.192493127988424,-4.728236246658391,-5.161003119441794,-6.263010351363686
4.0,-0.2560475283434736,-1.084813784664511,0.4376725401237297,-0.021759717027584124,-0.08865380015731925,0.5297928013206878,0.3204504749700845,-0.7479592516101553,-0.7880078501843047,1.325517209404944
4.1000000000000005,3.568857167560049,6.439523568300957,5.536039649255346,6.732606275780232,7.245484887614123,6.012308854075797,5.2215807764543225,4.776223210244027,4.861323100755047,5.376071544103069
4.2,7.243839674169319,10.312811536475667,7.703315892485928,7.412850755214121,10.853361347167628,9.407344058036744,9.334936297218846,8.53222186083232,9.67525657486348,9.423661463560151
4.3,9.86483963736938,9.182591766237913,10.787532553142727,10.553444522054097,8.234650072156237,8.705591005879178,7.332691121244278,11.462783384538941,11.117043572965624,7.010382103680546
4.4,4.6562445768946255,6.4445934831831435,5.777504204146992,4.575312098131212,7.605484617860189,5.305565549960228,6.8090796691450794,4.646097221952747,5.256899645178635,6.608881848529038
4.5,-0.978998289390957,-2.363555341422727,-0.012057477104807434,1.0239864513662038,0.3375605407391749,0.48982598111828696,-0.29362223157165457,-0.9468430361122308,0.6988453270258147,0.19316122445660955
4.6000000000000005,-4.4196873554467615,-4.49681383575041,-5.686240974965151,-6.329237377316681,-4.614425861294726,-6.796958126637352,-5.248404481272425,-6.387764710120698,-5.798304188289748,-5.831034405786305
4.7,-11.719031739305569,-11.305628330428794,-7.821607000673325,-11.104576277748356,-9.44174586003511,-9.294517635673811,-9.658533080693193,-9.713877182779692,-9.621446788830864,-7.721791711443071
4.800000000000001,-8.245740296848805,-10.123202892328866,-8.404890251464726,-8.629568260201708,-9.05063551415328,-7.363778500389321,-9.633359640338794,-9.763801482724112,-9.92499670927979,-9.210736719866233
4.9,-5.497151888853507,-5.882239854470061,-6.596443034358422,-8.126986344730453,-4.7021276062562665,-5.215092782456369,-4.789728492062928,-7.21388875847667,-5.640482252562916,-5.2605170121415
5.0,-0.03780301004345185,-0.3800410313586649,-0.03545796263962905,-0.3876700082285996,-0.09975361128092053,-0.5227021450005513,-0.05161896504272837,-0.6679575536559955,0.44378279852400193,-1.2158616731443
5.1000000000000005,7.845850929539891,5.103693820424839,5.0982530999554765,5.250561161811844,7.216394089486938,6.013487216238137,5.38307029230749,4.572186049721222,8.392240899468046,7.170689129764859
5.2,9.12815559580838,9.131345164002425,10.8642165882414,10.893442910817539,8.420516244401462,7.379346449881174,9.820574021008797,8.57184524198183,9.776727977266459,8.838617274096105
5.300000000000001,10.12594080262949,10.561299092005289,9.5232659777173,9.144445157263625,8.87874206401953,9.826053309831218,7.622534294854398,9.76443917336476,9.564470554456584,9.885046832008305
5.4,6.828402470676221,5.6145347276727176,5.944688789000609,6.1894292771462265,4.942346527337468,6.120392756335728,6.632008179238113,4.804227570959754,5.259685721529842,5.357919664706802
5.5,-0.12356878513710084,-0.6808382856660381,1.0746198288130588,0.31806578001307045,0.40341916006857703,0.14945086859739945,-0.8552138705452892,-0.9907804306591446,0.20263900805216034,1.6763595064506054
5.6000000000000005,-5.551728330453593,-5.983059366811889,-5.666561817784015,-5.610378677263569,-5.509577371898225,-4.255801099766041,-6.244302562432096,-5.433206967328084,-4.883693554138689,-5.412994062116972
5.7,-10.34924959301822,-10.539259850067262,-8.941544580101693,-10.270428566004554,-10.857992274536285,-9.160597256814127,-8.287174400292347,-10.561348325554093,-10.93474507935408,-9.387949432343516
5.800000000000001,-7.864217471319573,-10.067356398177381,-8.931975565106606,-10.521350106398785,-10.064703937317324,-7.360761437001456,-10.016324770330188,-9.48763878125789,-8.228440945849712,-8.52485296645789
5.9,-6.551585030940114,-7.525576369119451,-6.877963059056674,-4.059540496695069,-5.184030831172918,-5.6787668589924465,-5.034458685732388,-4.975914157204714,-4.931320343174603,-5.605618862803022
6.0,0.2670700544216031,-1.0868559586192905,1.0368257823417912,0.6588931170080841,-1.2518011771714326,1.1410786806120568,-0.21238296739300921,0.19595593476120124,0.6516113321626734,-0.28938898163971555
6.1000000000000005,5.7289967238719575,7.480542648168721,8.079070780989465,5.5417242540261205,6.346289084422064,5.122701359335121,5.549595663711425,5.374033886379264,5.74772806366423,6.325021613431264
6.2,8.892276446083885,8.941229544756585,9.640870176907423,9.974017071157956,9.859550642731845,8.969982124015129,10.15689063057887,8.505585642875904,10.266154590217445,9.767942722935784
6.300000000000001,9.110203898489518,10.34040420157261,9.360408082360905,9.619954683235548,8.980722621133364,9.279948022904794,8.781505974603885,10.397009892264155,9.373088851742798,9.124652820762021
6.4,5.666371891078593,6.621883120598869,4.754325923468746,6.339990291890395,4.604847361533725,4.693129546347812,6.9158403738689795,6.324189006316141,6.37578815427288,7.370535040452617
6.5,-0.33685721915935085,-0.41336780073201107,0.4894663406199807,1.4611151355603034,-0.4108107691412598,0.6184022046238584,-0.24076983642187205,-0.47902627497342676,0.12000077429319271,-0.0005929864921619823
6.6000000000000005,-4.620542718538816,-6.543363438268935,-4.734048928464463,-6.599478280968476,-6.731298554259572,-5.612950607422862,-6.548077599291535,-6.17326082569422,-8.34870992601223,-6.326372140260761
6.7,-10.537995040839583,-9.727534793603905,-9.198627643167873,-9.7072402129871,-10.11707030516712,-8.748627720544565,-9.776379447481004,-9.17943777521603,-8.774175172425727,-8.6005177319831
6.800000000000001,-9.594438813365883,-8.579868330895335,-8.43616393256514,-8.588622098639519,-8.916971101143295,-10.449927947467444,-8.386694951669076,-8.29820187204783,-9.794269581478627,-11.274302098321659
6.9,-5.410229787315495,-5.938331527835845,-5.599996183110847,-6.20015934396429,-5.7667594575762395,-7.244405097918007,-6.732325940653242,-4.746997918111374,-4.130766166421516,-4.8237543100839915
7.0,-0.18559489812121294,-0.8715348197165733,-0.5744601119665256,0.911267584283378,-0.18446663350449208,0.4799398226799384,0.8965717575820883,-0.942721774578251,-1.066284027869456,0.7823896939840929
7.1000000000000005,6.1046252038797455,4.15517099746225,6.108086517491122,5.343094222173493,6.553628723398622,4.802161538161728,6.133545060126609,5.5950785612347635,4.907102687445706,3.7351362535058312
7.2,10.368343186797473,9.522423589058391,9.292206706208827,10.379941268351484,10.952594724005566,9.6148717754903,12.295703714819386,9.78250181863229,9.139148057652598,10.684017565356118
7.300000000000001,10.138435250914238,10.730829520402086,8.324671667232712,10.096760743632538,9.113065264330755,9.365052093798733,10.250225879747692,10.875878235933513,9.468538118024194,8.463792236945348
7.4,6.693658842833411,5.174157873040534,6.677955358605596,5.637691628091976,6.385984912614866,6.341638282672735,4.755215703972177,6.712643580917754,3.7108731640014962,6.205034840210565
7.5,-0.31653204882849373,0.23880284540954416,-0.07487375315998983,0.8124584515852085,0.4472558206597561,-0.7190478797103499,0.19408232741316025,2.0924309504582346,1.3521230767293846,0.1848266910643858
7.6000000000000005,-6.293984998044316,-5.462181687772689,-7.341234415377184,-4.540039776672904,-4.965774956433121,-5.578382328817643,-5.553942725344899,-6.972003465046461,-6.4517653564514825,-5.1561851538847066
7.7,-9.85638762823164,-9.978911202605346,-9.958919861521558,-9.766054336988027,-10.695406849742453,-8.822797861143462,-10.881368881699103,-9.59597986437825,-8.31792035284401,-9.701171018540602
7.800000000000001,-11.340522325550516,-13.733893674975844,-10.825436505500733,-9.77847904031482,-9.635633677214267,-7.56172866742213,-7.2218164792445805,-10.540388287648128,-8.82353422655701,-7.7895677396249585
7.9,-6.1060289494070075,-7.39156796276258,-6.471856073066808,-5.626127130914343,-5.595772430481931,-4.36189295813308,-6.579765222206101,-6.085534593805391,-3.66208976967056,-6.407062203531429
8.0,-1.198197803425284,1.5427475621185451,-2.242116213745762,1.4610689929025384,0.35278568286426826,-2.3846579430230888,-0.5653320972692343,0.9851608888559122,-1.2489887895559622,-0.8032317058666509
8.1,6.831442805886649,7.165786330975278,6.467944435326731,4.974590105503642,5.483289732155178,6.69097532448898,5.867717222045781,5.870908371571968,7.362430016609885,6.318418910979348
8.200000000000001,8.747190647336245,7.0243111844412285,8.271232949533204,10.262486206778451,8.527931103490264,10.297763243615805,10.160350729331526,10.109642181071958,8.656970530549785,10.589576760696323
8.3,9.773975406754243,8.773843500287702,8.909816981350222,8.59155786921175,8.369467797562962,9.34321447588307,11.723787166296454,9.119632765445756,9.184282189127188,9.059349629650962
8.4,5.5595325453337185,5.527646798509805,5.702569627595479,6.748853427188298,6.0678842151991,3.3710735355199737,7.096549797519476,6.968428032879791,5.09809159455715,4.984830248715637
8.5,-1.1752328515147155,-0.5805444691807927,-1.4515465649183674,-0.3587516053076056,0.2799698146296901,-3.0579827246326445,-0.44132153065754226,0.007327081291435433,-0.3189309687916813,1.4748523949953123
8.6,-4.216917768586397,-5.867520275511199,-5.446882317014426,-7.160530188936991,-7.113218334790683,-7.853895142632175,-5.263377786013669,-6.273383697723138,-6.521487910642602,-6.308092445950648
8.700000000000001,-9.766068492262308,-8.556285937006894,-9.377447110957055,-9.688952803498047,-10.152931436687227,-9.305928415080263,-9.915475272621961,-8.542661384,-10.46058830124535,-8.71970060543358
8.8,-9.284007803403737,-9.557293152343174,-10.644897870990286,-10.517899376545717,-10.005810599685866,-9.09133978525169,-9.296048887344284,-11.183546874505808,-6.338390146276186,-10.678428082356268
8.9,-6.893659713327436,-7.019247763906147,-6.5664253441764915,-6.765188733045053,-6.226764768393858,-6.5359111150610945,-5.5976321233463455,-6.925622971243635,-6.565293563475202,-7.383741580117486
9.0,0.18293556748799952,0.1439134402627584,-0.9275305586623943,1.1950534985737085,-1.9223945229281796,0.1769399665721051,0.11256478313569726,-1.4472266582918398,-0.41040217150431285,-0.9500672935460306
9.1,7.1430459159020465,6.794233217506592,5.238075604762429,6.566481138137657,4.77624595367692,4.4203406879977365,6.219060045695578,6.4109320352013555,5.647458824412616,6.345890025995079
9.200000000000001,10.735649969730135,11.063373180371691,9.608464937057514,10.222966122205033,8.901018844172581,9.865334688798375,10.4534427201795,9.891168895847832,7.466247467520449,8.874125930288992
9.3,10.33346984644037,9.60223726234644,8.720124897807683,8.493842499375532,8.386374798540736,9.382721095975384,10.570057017519895,10.140673716938071,8.713886668295206,9.041495126750823
9.4,6.336831042736873,6.261327805251522,7.305168723473089,4.725978667605321,5.193157757390103,5.829767552382374,5.1987230218008085,5.893211197059657,4.905497068890285,5.558751128422583
9.5,-0.39398733879551545,0.054015099186741425,1.7797074707445333,0.6477613703847469,1.0742611609304253,0.00491201869105323,0.7623877565987235,-2.3647204286945613,-0.6838880694945998,0.4168430774834401
9.600000000000001,-5.5128467031502195,-6.019959526846298,-4.902521368725718,-6.010122473345483,-5.234955096799967,-5.677784093849459,-5.346409398687425,-6.429263069758008,-6.174495427233785,-6.382261212276614
9.700000000000001,-9.849924261241574,-11.595613649637322,-9.354066373362928,-7.893437410344072,-8.213396040908396,-8.65449555523275,-9.5875191076386,-10.236176150025244,-8.17903341725445,-8.607046072570942
9.8,-10.499239894806921,-10.732807264588656,-9.076429226746798,-7.945889608345568,-10.198817229470688,-8.411250552848005,-9.27354553360611,-10.657078733371698,-9.790338744199742,-10.436676494321757
9.9,-8.010739917686589,-6.668212213117522,-5.206445567272148,-6.177526283125473,-4.559238660577727,-5.601010744480569,-6.342060473949315,-6.831500603505157,-6.439467135240236,-4.808647436011626
10.0,-0.4593173972140871,0.44770297987604135,0.16281747368350105,-0.2093173860692558,0.5380605160438146,-1.1383886187336174,0.3573858722344653,0.13660407141267772,0.055083526785312774,0.008611598785393866
10.100000000000001,6.417963645698608,5.114125476483473,5.113141481671825,6.5900156657230236,5.123290129539002,6.223552578918098,4.823403689780651,6.463639093277746,5.847432722236295,5.565616378794761
10.200000000000001,11.396284213292619,9.224949070183234,8.10577554363433,8.77304564338667,10.43676915190433,7.53697217261293,9.137476844701013,7.237913187715675,8.995871104062292,10.631375086939878
10.3,9.54615829749977,9.866405113671084,10.891482927179723,9.617112605641973,9.817873806615504,9.832063043549152,10.235068210592276,8.564312791678704,9.194541444437442,9.958514207396657
10.4,5.8141394738281065,5.483359343914678,5.890452585943133,4.578162492389781,6.811445521296414,4.011508478139311,4.846216705623599,5.940965332552319,5.986070008876913,5.7686307853834435
10.5,0.5494607972906148,0.9669610124677331,-1.334723144524529,0.6755542844514286,0.5939713834477157,1.8213886667346906,0.08446450295906158,0.4107189959791138,-1.243118293631693,0.043166821948641756
10.600000000000001,-4.683203707781942,-5.331235733226062,-5.760185969811235,-4.128617260318635,-6.402250821135526,-4.497021895108308,-4.131351251121173,-5.662271576362849,-5.044316386819681,-5.481737260385028
10.700000000000001,-8.353517582197288,-10.082216808865239,-9.004156006980311,-9.919992432090897,-9.272922502448418,-8.68664857565603,-11.445475612166874,-9.047543079821313,-9.83619458489895,-9.668100540422815
10.8,-8.892406899018717,-10.33282743672428,-9.864942516658967,-9.009731001543443,-10.213329058773922,-8.427381450024939,-9.813171225319538,-9.450932561450161,-10.784082438870113,-8.149619968374425
10.9,-6.525590417737465,-7.599381396851982,-5.158317135263885,-5.562846680453407,-5.931371795068162,-6.251149892433131,-5.911678594160205,-6.22742717735844,-7.093525078389722,-6.610547236179565
11.0,2.7737820366120087,0.0771446242724719,0.8545399733759779,-1.4338545787718922,-0.9845808783209529,0.5030063719897354,0.16346422097429714,-0.5153200255346162,0.9415004065515906,-1.1158509980745235
11.100000000000001,4.446486273514148,5.596294859512714,5.727643168448264,4.976340580873714,6.838016745827493,5.705817779069266,5.323611949277977,3.6777250649703412,3.754074517699897,5.117142980093708
11.200000000000001,9.596251950560053,12.01958126602538,10.770441881739892,9.5539004448725,8.196458464218514,8.716760640224656,9.946642285779905,10.71035637866489,9.4016502478003,9.4661389902164
11.3,9.772273371083449,12.675415253908275,10.5736809342609,10.382757908136092,9.96548590677887,9.107203883487413,8.315430268899332,10.486602835186217,7.633960550974344,10.05734219328746
11.4,6.53513709144454,6.8760476594511255,6.369478052941667,5.380583509826351,4.470876431488488,6.147866037175402,6.087281019804753,4.005730446690033,5.504230139135746,7.046933650904582
11.5,-1.146591890167729,-0.4103328511892317,0.3744730666172514,0.23675971273289123,-0.003258048713280875,-0.9352432227633317,0.6282051549691618,0.7560080008746353,0.4824275620530497,-0.5816502500127716
11.600000000000001,-6.41627594559276,-5.6180692218177155,-5.384957952281909,-5.151528270434639,-6.606201321986168,-4.783693778082759,-5.6143576259055346,-6.171478699873193,-5.725285422390823,-6.25806228255346
11.700000000000001,-9.605891613307747,-9.023588548888819,-7.657564986590657,-8.441885193303925,-8.072537920584082,-8.59308644844045,-9.721084455360689,-8.88362257699752,-10.493710875667766,-9.042082341107736
11.8,-10.114519853680585,-8.217675350883262,-9.663669682488607,-8.653050397135761,-10.775133402773488,-9.238001726366141,-8.792580261849908,-8.614853924732998,-8.789277677816424,-9.32180467776933
11.9,-7.933230965449263,-6.686063966328516,-5.900782366600342,-5.03360650824129,-5.956802910352667,-5.745522774255568,-6.705228839768996,-6.643144321225817,-5.031303731127741,-4.544313613116441
12.0,1.1735041658736969,1.9656202484786267,-1.6386909163530856,1.315455931737149,1.0748079866199287,-1.3395391062267767,-0.8010279179810368,1.7367817756578665,-0.04130539433405933,0.20161775463003836
12.100000000000001,7.161760516703249,7.032569930754846,6.22110925838766,8.167724386283844,5.642269693529402,5.49939352304651,6.861459267352897,6.1255009971221135,6.152410560042291,6.902578747828337
12.200000000000001,9.826707815557366,9.22248720886194,9.515272949452465,8.66989886792241,6.929486755082955,10.263297592614277,9.639996956413158,10.418672707892926,9.972665972480725,8.609525384810354
12.3,9.635432734644096,9.234349690485367,9.869168286210352,10.67391568344388,9.820220692092727,9.648734483554742,8.723058723654818,8.442308552627464,8.125353023252952,10.35810871190166
12.4,6.454416070544827,5.87450045860772,5.931177898926715,5.06489690756709,5.557437054495748,6.199330121269077,5.676770464654016,4.955595695732416,6.00850016295419,5.736189325103713
12.5,0.08432470574859059,0.4272576795447957,1.6477985310718715,0.3914686943733968,-0.00019062878634194518,-1.2183298821382198,-0.8845899292489868,2.8787162734814773,1.3083123369141751,0.23210016511540132
12.600000000000001,-5.303062906905332,-4.927123097423271,-4.76293356102589,-5.650099575827036,-7.026071053611288,-3.8629248469074025,-3.2677310229582797,-6.4666585082338,-6.093674540672208,-4.68143138152541
12.700000000000001,-7.74736279255728,-10.247124481445562,-10.306681037659677,-9.023292313978924,-10.977213298604191,-8.427215092280763,-9.94014856440108,-9.848318721924384,-10.22199166892795,-11.019788731284116
12.8,-10.191588217934264,-7.986806751609739,-8.753023134037926,-11.396091434658842,-9.776032909814255,-9.53219458712574,-10.25857925570674,-9.86382371716627,-9.767862756468546,-9.147322545135335
12.9,-7.917510361497012,-5.713932763568648,-5.409559316497491,-6.217540356384707,-6.163211899612176,-4.699363513220295,-5.460561844164589,-8.080869624330271,-6.561693558725005,-6.284105596303667
13.0,-1.573012724731016,-0.22291048119118614,0.17317814621044827,-0.6414999487878611,-0.48386123445706375,-0.5922119331757605,-0.6423282529793812,1.0944896591739122,-0.5943521445967115,-0.8798472114969322
13.100000000000001,7.264810453970565,5.258444770538103,5.0734411724818615,8.339350325048478,6.173959319811074,7.012908878439955,3.9164438429083406,5.736727951017492,7.003206427246329,5.565050531543607
13.200000000000001,9.147234521229516,9.798208140773545,8.744962971029233,11.072965063238591,9.995551443450324,8.82098964496665,9.200401814819509,9.64903047351012,10.88909892307326,10.86927924847476
13.3,8.51826121186732,9.30055116554784,9.455752334884263,8.57662999273574,9.681209324348751,8.82087827452775,10.335741363857501,8.378939496224493,11.59733195087094,10.934302068759482
13.4,5.988422860864644,5.905609233962355,5.784396023907048,6.193093276564083,4.021908889593001,6.472470123119132,6.623606883193559,7.128552918494096,6.15997758708652,5.666923185519362
13.5,0.9178908639874044,-1.4184665882237022,0.9842986993261544,-0.1378375280549068,0.8286827496467926,-0.44880196692930424,0.46182774320683556,1.1805221137139845,-0.14317768515353185,-1.113135077424401
13.600000000000001,-2.738463171775868,-6.744581031723522,-5.858769143330774,-3.673671889979931,-7.181026763585775,-4.596311366682625,-5.694335556515823,-6.107167418573446,-5.477495995406487,-4.306947788287923
13.700000000000001,-7.529637750897424,-10.002945171531255,-9.756494813232589,-8.266609881963692,-10.087858436971914,-9.518891007744637,-9.928941123460525,-7.895905459415686,-9.017408403222767,-11.36883304346538
13.8,-9.474497551097596,-8.86174449774307,-9.962468836599708,-9.074648155340284,-9.501434258461853,-9.202175995943817,-8.448662152091575,-7.959865040284055,-9.377486930246818,-10.962891191309886
13.9,-6.19837275977848,-6.646704631456907,-7.982571762029117,-4.953876830632306,-4.624313791457106,-4.878256934363905,-4.728417408726116,-5.144469484709704,-6.1095529653804865,-5.884848588723428
14.0,-1.1212086188974775,0.7072667260226623,-0.5490047773500721,-1.361760275345583,0.42571832379363067,0.1718396951474409,1.1115114498300893,0.26490437105364245,0.8735335520572743,0.5351605124866127
14.100000000000001,6.733489519025097,7.187728949242026,5.698211143609988,5.022635437336032,7.148056375285679,6.200819987349027,6.256877944451506,4.681834253505636,5.043390157889391,8.487681818409857
14.200000000000001,9.128205968636154,9.179566546406539,9.928672609533443,10.106958448873085,9.580709306007652,10.186934958951362,10.109593638318403,9.59050623051948,9.076228257226546,9.672625666037852
14.3,10.124897299840303,10.18923208132995,9.725346864476116,9.234628555312412,7.47255986796209,10.064497651535257,9.124888577094511,8.799009255952994,8.373397051766252,8.519018368945396
14.4,5.812048977654863,4.894320105209746,6.220755621568859,5.114725963285442,5.824080665048631,6.068416495214311,6.082522648499587,6.290390593595234,6.109306270332001,4.263675943088617
14.5,-0.4563004763230596,-1.3231409899383073,-0.5734958292563823,-0.6914365859504809,-0.26850304680927894,0.15600925141536154,-0.6393137659869766,-0.29142765176252705,-1.0203099331441552,-0.38558865224837036
14.600000000000001,-5.9526445062669024,-4.241037587451881,-4.8567564385285085,-6.001520352682272,-5.109584574411017,-6.23570591221238,-6.801000301906757,-5.9990128930403745,-7.165093386779276,-5.024720202055387
14.700000000000001,-7.233446695876363,-8.405303879491536,-11.060889726305035,-9.599470458820477,-9.416535120309877,-9.239028821558831,-9.916615673554062,-9.41117258255833,-8.348430757444849,-7.941897055054041
14.8,-10.384560243231977,-8.545373244060784,-9.45796920919762,-9.986789881812363,-10.87673468367962,-10.47044662532231,-9.81590559251287,-9.2373756006355,-9.616676292467385,-11.131231930470953
14.9,-6.978206277110455,-5.179514149538113,-6.65952747049182,-6.337083880857223,-4.4830789738734165,-5.695870569231618,-6.437323654129047,-4.734977963703145,-6.779957545513432,-5.415333450921544
15.0,-2.738786546091072,1.6811258102551696,-0.4308754566704712,-0.97705330445569,-0.686346333306401,-0.6594021486385042,-0.4470309399418923,1.9873735991636827,-0.11008185527958332,-2.4713089596695474
15.100000000000001,5.181918042566792,3.797796256784703,4.48722542344664,7.724450905296514,4.6312469273261465,6.938361075487745,6.020801368752505,5.898623595964203,7.652792540543057,5.084332431070466
15.200000000000001,9.328046086003196,8.320928206082424,10.010494613776059,9.978588264214359,9.534074210465448,10.626813408704658,10.016716489635192,8.512440143597138,7.5433591794724215,9.033164106023134
15.3,9.0813265490339,9.86528311790915,8.206175846067604,7.719341160164426,9.537192526971713,10.094439940759012,10.929159838545297,9.800282061503252,10.04069853593358,10.773922449864973
15.4,2.9438183790819683,6.055305242928869,4.238663526762718,6.271663211871134,6.267978175771393,6.095171960573239,6.307062364357442,7.242988656850189,7.001537796753659,6.134877934325574
15.5,1.1549329448036854,0.1379589767012336,0.5665987675070557,1.106109117757919,-1.6056585537152415,-0.13395219599024297,-0.610978509164657,1.4664279771041013,-1.142496218115018,1.375862152270827
15.600000000000001,-6.1472092888432694,-4.763595659725469,-4.940201940339862,-5.312074706259829,-6.071487102550144,-5.694981723271578,-6.903264393961896,-6.177632715795082,-3.9849703844975704,-4.554870819975081
15.700000000000001,-8.964817916897056,-9.312663436491293,-8.468380764146781,-8.983273617651882,-10.527835516921728,-9.07376175764161,-11.17759784740943,-9.922945175484852,-8.759219082210683,-7.713721446028162
15.8,-9.719263406367013,-9.787579655926917,-8.467221362088193,-9.336239876887003,-10.058645560671993,-9.515982126172071,-11.477069042411216,-7.76495931047283,-10.574313036150391,-8.913024142074995
15.9,-6.424941243014381,-6.795148293772841,-6.212034113490167,-5.854432766101312,-6.909717860709959,-6.654491935400524,-4.86260366498976,-5.883842842730142,-5.823079191238316,-6.27886759460625
16.0,-1.1401272508644735,-0.42840700734297105,1.4401503319615918,-1.8550865534061352,-1.1394736139214825,-0.5027804030407697,0.2801274316283394,-0.2792802186051149,0.44124045380305216,-0.34631240167308275
16.1,5.732338195949839,4.273008824754925,6.224378128566956,4.177538361978667,5.109131964340077,6.027426268402676,4.340504741267078,6.364232386901493,4.427959600514446,7.2963429527526955
16.2,10.658636751424945,8.503658142580086,7.652700776891914,9.920147034707021,9.283968113576663,9.419896326254992,9.615165211222571,10.73827560835914,9.43731707169938,8.62961259874916
16.3,8.961784112150818,7.167716267055766,10.61652926637803,8.750248079296664,8.0806033175132,8.615517880013574,9.872761342956977,10.789969401886648,8.29385331678176,10.616097010305829
16.400000000000002,6.658938394143464,7.027362711932647,6.3477810124867275,4.49955075701723,4.964276548492559,6.175838033186889,5.5924016579525295,4.468130832392365,8.321222732203038,5.2629252806063995
16.5,0.9149494603675684,0.7086329529870852,-0.3921479295130386,1.041016130835176,2.1407729526902592,1.1980249105705603,0.5531315075158353,-0.22484431478813294,0.4815805803072379,0.04071573329949753
16.6,-6.410959201994127,-3.9702239003846262,-5.377093499836816,-5.66367438312232,-8.121139602844377,-6.201387327752759,-5.741485878912903,-5.251346327020181,-5.254631810533203,-6.884796509890235
16.7,-9.841507881409782,-9.218737922589472,-9.80037324879035,-9.492720443913983,-9.02331510919148,-9.94029749928513,-10.300381878105423,-9.840929614601961,-11.561497648760211,-10.04853310611717
16.8,-10.124418343422048,-9.573505905549883,-8.991166403235809,-9.338499526099636,-9.437131863224343,-10.565645206515812,-8.623088335012788,-9.282819632329238,-9.100172507370981,-8.097745301357609
16.900000000000002,-5.734408654035377,-5.521141902510258,-5.00622068282598,-6.117506353528968,-5.510621898841381,-8.471385387796655,-6.196471277663781,-4.884920241930387,-5.877003309303349,-5.899541013980287
17.0,0.44267510231828705,0.4410581311282662,0.19046063194602522,1.133051149715408,-1.7569947139329924,-0.9298516136546132,-1.1024228778179732,0.645081600846713,0.14194672732653307,-1.2368372901938283
17.1,6.411281820252521,6.79434079986525,6.746351925468364,6.054700252670454,6.90659925776961,5.062458786928518,6.4541614764907145,5.355601703785575,4.554814764400588,5.201533746313907
17.2,9.050156360336327,9.609574008427328,9.476843368371531,12.124712676252305,6.925089205716792,7.936437266106815,9.637266623781615,9.255738160943988,8.986330409033107,8.846093659666979
17.3,9.606786224117553,8.564609913391099,9.340724069509932,11.023685546209753,10.639661103710946,10.31175398620962,9.147496074228437,8.970421491421188,10.216045671298366,9.429133204001639
17.400000000000002,6.731720678488563,5.902705034059896,7.59148138274612,5.840211928503984,4.348201427008293,6.879673896432915,4.978633790543917,4.814439527466811,5.628918577998753,6.145824817895403
17.5,-1.095880475437577,-0.26170678789788865,-0.8017018673543028,-0.4030340038888786,-0.4891488066884392,0.6004039199343871,0.5368628574664663,-0.9522246398112394,0.022830877854567683,-0.05506800614238694
17.6,-5.279451760087753,-5.454469622688464,-5.755540099079644,-6.370214660430605,-3.469045896372268,-5.401945886322217,-6.747115714106479,-6.13678251850115,-6.77918551262409,-6.451786811316999
17.7,-10.135667969739226,-8.889946120620145,-7.277536642507029,-9.641453461664426,-9.164759891352345,-9.818207224980679,-8.372076454065056,-10.073947383060354,-10.159173410251833,-9.616205207252749
17.8,-10.087550905666934,-10.361445962127519,-9.363473820614509,-10.339890114878632,-9.168416803054651,-8.46581644335685,-9.355730107217557,-8.634623478304107,-10.85720606935211,-9.766880373227599
17.900000000000002,-4.5176318754746685,-6.343619874201697,-6.543998015067206,-5.116157155907386,-7.08870292578015,-5.161850540091573,-6.158365523149618,-6.38731443947133,-5.3765219019725885,-6.457159038000865
18.0,2.0122832390853636,-0.7973024281235533,-0.5794979865706079,-0.9145676381578833,0.24491498467773506,1.362939881683638,0.5593864344715566,-0.8681355080360283,0.12207364573681799,-0.20522740321178864
18.1,5.774963336026142,6.769468391028205,5.700332078635089,5.867254732010185,5.54107724921219,4.777677065839873,5.669055591543517,5.781412641639965,6.736848511164141,5.689508614900594
18.2,8.543314143917287,9.887368469112733,8.545488150833705,8.621115926524972,9.416811451316624,9.683676498553092,10.703561520630975,9.42918984979171,7.907121282610527,8.442236513537102
18.3,10.281623516678145,11.962066068660228,11.071155753252093,9.712371430439227,9.304122823691047,8.86655926157742,9.809440011587434,8.845752699196037,9.872071216761736,11.101508677532467
18.400000000000002,7.09034903781047,6.306370446780465,4.640339175194949,3.7477714910072555,6.456221843911891,6.957010329517206,6.677956959165953,6.94697734390566,5.97645421540386,7.521889098651274
18.5,0.605046082423793,-0.06793817581809676,0.5925016483138977,0.5333784120361532,0.4001519773238453,1.287285392425439,0.381469932049026,0.26372122545996923,1.6303762945805853,0.1552574338857944
18.6,-7.39369621968853,-6.392825753286018,-6.186569548288897,-7.371709911228757,-6.075024686026207,-4.01240104794126,-5.969150070381149,-3.80086366653068,-6.509751938517928,-7.148635335559535
18.7,-9.02525545999556,-9.189980269035035,-8.933533267212663,-8.92342206354197,-10.68559727053371,-9.855077266145974,-8.808662113836588,-9.48767957810671,-9.373111884524146,-10.168980136882912
18.8,-8.981778701929176,-11.227369688005302,-11.355326112099082,-7.941356027192331,-10.403896174532727,-9.405311590276074,-8.159183704422807,-9.771660667692945,-10.260339143189073,-10.65745732522212
18.900000000000002,-6.81107904488998,-4.567783244194142,-5.764863856887237,-6.505030573705425,-6.3324186107943365,-4.1666755154620185,-7.814123275629166,-5.587375032683593,-7.826550747871362,-6.114447896427386
19.0,-0.33863633709959073,0.18043911433394277,-0.069445759523028,-1.4905939817009588,-0.2098217322159771,1.6697907750744914,-1.647585610898481,0.26036654714003293,1.380211706342109,0.6146128523974534
19.1,6.003921971039495,5.881149542044813,8.394417747252138,5.958479329567914,7.692771767606748,5.857819286394857,5.559813418357693,5.178956244152593,6.561477672178324,4.8077114975533295
19.200000000000003,9.614988905927524,12.056241681469091,9.674947649481163,8.755058162692219,8.939643827601461,9.37452580885196,9.109529836374131,7.883169597396965,8.303016864438149,10.198857546739953
19.3,9.128956943308665,8.579134616228682,9.493306951833848,10.072162461408775,7.771469682356447,9.242358090431118,9.043460414621531,9.465728219316588,8.762376883676325,9.00109199142028
19.400000000000002,5.071882716631929,6.360175256316776,6.229789358250157,6.270256254462709,5.943750994924352,7.114506964411444,6.219403971371798,6.308257886734571,4.195486834534931,5.3415950663366045
19.5,-0.6283675046206235,1.058093267729697,0.8155650941460465,0.3069029556918963,1.0930274829082243,0.807976469214738,0.9066633099217007,-0.8479377756368809,-0.23850825519424168,0.057660347520808564
19.6,-5.049840527741715,-5.79468793270155,-5.537478122894729,-7.314249266441526,-6.814526004497391,-3.755462201471403,-6.704164869269087,-6.779035970143707,-5.59739852341442,-6.472819315827466
19.700000000000003,-10.439542890503848,-8.90869684726227,-10.049428305343719,-9.619502979566917,-9.7782733908395,-11.120137936806026,-9.961458678279564,-9.078977697288325,-8.653328106232353,-9.111043903296276
19.8,-10.738701999085434,-9.709107285331825,-8.952277208692609,-9.802631767635964,-11.282763929252738,-9.057343640900147,-8.432478959024388,-10.2747842248575,-10.322255850148027,-8.32257424498433
19.900000000000002,-6.263719391835577,-7.296062383495393,-5.922482200292438,-6.1554512660751435,-6.642575432197944,-6.551708606051612,-3.821492024420675,-7.0057154402871245,-5.651333800118678,-5.607629886666996
20.0,-0.21819061740031934,1.3438130780682256,-0.8404889814640336,-1.3501281723702645,1.5730551287567154,-0.649897456396429,0.5619585654108221,0.24427352153534557,1.9681159862536246,0.6753754481936297
20.1,5.096684238430777,5.821498014864135,6.12890075434326,5.1009723236860305,6.710853248939463,4.980613028524434,7.4202258075748775,6.093708790218581,4.015402929627827,6.4958293467195904
20.200000000000003,9.165508552756435,9.160969226493117,9.633175848307008,9.380133683527127,8.643224395091554,10.170416382880742,9.39424302201542,8.708262449616582,8.752363159423961,8.826276779262543
20.3,9.141740482539161,7.9693837206771025,9.218584118655311,10.213026960993284,10.571442109642444,6.531171085487422,8.663078774954151,8.247893042594,8.750748896665787,11.128596049645715
20.400000000000002,5.3805480430339205,5.500802251349858,5.571198061103292,4.864541689699752,4.766751365274251,6.775704175478244,4.351167011530615,4.705523055637844,6.382945490414515,6.655379160483461
20.5,-0.18276402212138645,-1.1794548488086667,-0.2234681505114484,-0.31607999449905344,0.5543571318847228,1.85470126895468,0.37389207166916755,-0.5767666543246873,-0.7433866006508387,-0.35515313179463825
20.6,-5.7791145889642115,-5.6130387728181805,-5.094747616640834,-4.866343589158623,-7.909486126223838,-7.260185955660599,-7.217001628776259,-5.859154734860437,-5.748231408745081,-7.571925665755119
20.700000000000003,-8.448869697447673,-10.781149989246698,-10.651085771047018,-10.440154276249237,-8.551518814090134,-9.94375907607822,-8.562720659163347,-6.99183493414766,-9.299520227643633,-11.548305677642723
20.8,-8.783712344432919,-9.050929399427696,-10.918686316755252,-9.53106781834856,-11.346314460061226,-8.734266007617304,-10.33224483267449,-9.80106009904466,-10.28502503064052,-10.303710593548386
20.900000000000002,-7.5119358030177406,-3.918510641227181,-6.174771955556154,-7.168829835467962,-4.991668291386594,-7.515642537769386,-6.253074757022975,-4.724987699843002,-6.258599395600132,-5.457687007982386
21.0,-1.1871157467092042,0.608195134056192,2.1815693848372435,-0.014446800432472325,0.8050761829200425,-0.5389329861108161,-1.0605708835467924,0.1753066978087453,1.0199586657911777,-0.7925965986396687
21.1,4.505000823249366,7.591638016407195,7.0531719519331935,4.693195254926234,6.411320058946452,7.718752029409366,7.937735538305765,6.807106157585068,5.470692203052139,5.4837314214787956
21.200000000000003,8.946183148534576,11.676403774407206,11.518563840837242,8.624742010269943,11.08411901731564,8.66578872317583,11.469758253166539,10.74047271139391,8.427100186454263,9.728302979567967
21.3,11.066493349635453,9.808389800357315,11.80992592958063,8.324153024787034,7.529945565812814,6.796634710299778,9.234275476417785,10.217985708370533,9.49454307566268,10.188349233863487
21.400000000000002,4.9513197805922085,6.159754412925399,7.267875045737857,6.514934292724175,3.938101921538497,4.481454259881254,5.518871969676138,7.4855278661225135,6.751879027129484,6.481168613231977
21.5,0.456440107399952,0.6298829564233145,0.016308570082821727,-1.1559282164921834,-0.09102398863174221,-0.8858546449296993,0.05907488146656117,-2.3262789236070813,0.7358153372126451,0.11584287867059563
21.6,-4.303682148917981,-6.400617162038476,-4.617380766347463,-6.391044299643571,-5.589537520034694,-4.6609740679138705,-4.984357229302286,-5.923156026199846,-4.803448481898867,-7.362512001504287
21.700000000000003,-10.326998470177042,-10.21432999226635,-12.19139298398493,-10.698457097537844,-8.142559562464527,-9.898996707276414,-10.024604518161293,-9.359829173479202,-8.973198248021612,-9.962439279491097
21.8,-10.106062410732095,-8.617196701407414,-8.923728530674202,-9.27137054081994,-8.04806533583173,-9.14275186531691,-8.59851317087356,-10.547011739622492,-9.691824258724047,-11.484521401529745
21.900000000000002,-6.473374971263187,-4.798932943243073,-5.757590043641047,-6.651972310674741,-6.150492695303342,-7.22374675946622,-4.539471979424253,-7.558047200807779,-7.49272323061048,-6.253700255039915
22.0,0.41800071236809155,-1.1788262876303492,0.5637074242892327,-1.4822428633429716,0.6758165941462823,0.8392126196159432,1.6807499940163941,-0.11715032398308224,1.6096225656555658,-1.8721142539871694
22.1,4.45496501493528,6.328898118193312,2.3293416296639564,5.051906719193734,6.071362590419234,7.155756870257758,4.898230460269281,6.003827799032768,7.702777456962928,6.066471570673791
22.200000000000003,10.338114223408079,9.74513248268314,9.262492180095238,9.456073082936467,8.807016664369264,8.792332551551521,11.749480792771532,8.864417041496218,9.595021636231726,7.987420420404618
22.3,9.769844693986267,9.209204503341011,7.130092907489125,9.974357295107328,9.028346966440203,9.241032742807576,8.831665189452538,10.860067275754588,9.638577753748821,9.375919134851173
22.400000000000002,6.01808304461959,5.576636472712011,4.785483362965705,5.595420359440647,5.746133409064706,5.251006935692016,5.742062659239599,7.526781785570974,7.053406301517553,5.685480804088608
22.5,-0.7354697044533703,-0.7647112465932233,-0.7860791249922697,0.3482471168944619,0.5645073317967377,0.010488949923535083,-1.4729433182580556,-1.371856178015054,-0.35793277999273815,-2.0542718474220436
22.6,-6.3278608417054425,-5.933048774470627,-4.1067160626403165,-5.530278360784782,-5.855451310563255,-5.706299515464889,-4.231026283334266,-4.629159798894364,-6.640325130216567,-7.419958438086329
22.700000000000003,-9.373432431713674,-7.835447254662725,-9.331834412687458,-8.270893713597074,-10.526152611544457,-8.691504071881663,-11.63904388464672,-8.602133188927818,-9.423353819869495,-7.9804608408330555
22.8,-10.20783003360424,-9.87607791944926,-8.611595831220326,-9.260606907713406,-8.862725081391522,-9.693595148653534,-9.859664491360943,-10.222078991383027,-9.66930060420945,-8.760040633411279
22.900000000000002,-6.5359820934997614,-5.542408336713279,-5.482055085333018,-6.320174828375654,-6.388661298322061,-5.975101113612043,-6.560849711635841,-6.23553442157482,-8.271821598557054,-8.079486879469746
23.0,0.28313948092146685,-1.2914777936916548,-0.039028741024147995,1.3772519849606328,0.38421696025073826,0.6102115553403915,-1.2604996180549852,-2.061923825023069,0.6704865697887678,2.1617601677888456
23.1,4.337860527763624,5.037643257775739,5.099707112390399,5.196421603706031,5.903103437281424,4.355762894246025,4.799906856313303,7.398910077568053,7.55909536435782,4.977977519296277
23.200000000000003,8.701902065754489,10.322212685868827,10.075746846267862,7.988809304013386,10.008863660398502,9.518306671796928,8.268947111123328,10.411467914004492,8.717510940954968,9.061321655284647
23.3,10.345153719005925,9.823566192779111,7.463628749173818,8.015630802918109,10.948913340622621,7.481875412116237,8.540793568819204,9.648693592257581,9.223370415203817,9.053093413089709
23.400000000000002,6.7155127005299375,7.446187595889004,4.857135477535371,6.799400465450011,6.470821465301221,5.318010774610162,6.074899806567293,5.184051389187924,5.908379164249155,5.020872344276863
23.5,-1.134959989810299,0.04801353346569741,-2.38138648361308,-0.09311005872289582,-0.04653146613003601,0.011423508672511547,0.20337557213182894,-0.4218556785434086,1.8514873534065177,-0.3093304783517003
23.6,-5.972043513231652,-7.0835508604225454,-5.424488161634566,-6.626221033328182,-6.698538017415602,-6.128140301448213,-5.588595571437624,-6.312348671495379,-5.793584303452588,-6.0059964620489925
23.700000000000003,-9.067967503315876,-9.828800478194804,-11.128990274426823,-10.458826450958554,-9.877750137744426,-9.68833587767236,-10.60917402472269,-9.838229820600429,-9.46946699964356,-10.431942840972978
23.8,-9.665378188354943,-9.7658794252086,-9.24582763917373,-9.280363136624985,-9.672410801350194,-7.9517191916728285,-10.151524933701578,-11.351822216031545,-10.508456694349887,-9.002057821511592
23.900000000000002,-5.681331122715796,-6.09649454811808,-7.406624195071287,-4.597030088385619,-6.6312408398698865,-6.271940374059007,-5.115937830134315,-5.816652534060988,-6.964857464120271,-7.030808862002678
24.0,0.574000991333246,1.7100858947106132,-0.39373773785600413,1.8167993799928805,0.3577496914258233,-0.22963400893615812,0.8464526945075659,1.593887387696702,1.6544019800272336,-0.5705130410475288
24.1,6.2312035708607745,4.831893270553287,6.158419402794605,4.344056398309894,6.903864713840293,4.025400592755455,5.497986434832715,4.433340576151838,6.814112039928834,3.96783865443712
24.200000000000003,10.283007628435158,9.766700898623451,9.565136276653284,8.692025542270153,11.073150668828598,9.078883553881846,7.55415551525963,7.52612841185874,10.053679664437853,9.363210585372668
24.3,10.621699282187816,9.55408719041072,9.615371590205608,9.65109798900681,8.951806886371703,8.433951425109296,9.512312724289263,8.781891320870658,10.362565002920805,10.15924074012453
24.400000000000002,5.607172207045405,6.945363238757878,6.197180493723656,6.226180087517571,5.5179126598925805,5.128543696967611,6.755259229253773,3.2683338710740206,6.429880606176503,6.437457858130797
24.5,-1.2065506733147402,1.5243338642496154,-1.0434506619462327,0.25898829281457975,-0.6198577945589019,0.8673955905323866,-0.4005019731423115,0.4204991760610671,0.8104459833844082,-0.4551958249433322
24.6,-4.654402257312466,-6.228857344832508,-5.926650013047248,-5.568794616636316,-4.769289602769579,-4.782243501744105,-6.566830705458395,-4.898380472449855,-4.8076080990898715,-4.640422248620307
24.700000000000003,-9.32781256030683,-10.855215491562033,-8.940072210769738,-9.917618694462734,-10.301652503751903,-10.837710201336414,-9.438287165676616,-10.497895208618306,-10.582789287113291,-10.214470727204683
24.8,-9.581252124474867,-9.117270661893224,-8.507213808899415,-8.9166306045321,-10.79992219441512,-10.705060542804162,-8.758345305288543,-8.372051624791265,-9.120995360140638,-8.028144894088067
24.900000000000002,-6.482994760784238,-3.7446077841613383,-7.464349841752208,-5.413645284045351,-5.183306489557758,-4.186244163657657,-5.497560031495406,-5.863231448890947,-7.0277689280246936,-6.635164696588022
25.0,0.20819357140165923,-0.8803636695113715,-1.6082334454309326,1.4442103593538784,0.6200831156157188,0.968219567759198,-0.9978362539260359,0.012413385139127726,0.9345324135396647,1.77459076038878
25.1,5.368794927257692,6.641258621883431,7.406071651395838,6.901126828302548,4.582904171426565,5.977711447789393,6.20045748988733,4.344411888769574,5.852622695690738,6.3423242190502815
25.200000000000003,11.303230711583312,8.721650058704562,7.8179384304475095,9.529625130914033,11.235167019452772,11.558830000323898,8.104033742785717,9.327390663699616,8.39465087681911,9.887874985164807
25.3,10.368672672323274,9.790713879826965,10.065747334676411,7.2485886427240676,9.29078676706373,8.346651350635314,10.267406589664647,9.135347887678835,8.539686643046023,9.441914646064062
25.400000000000002,6.021366866759466,6.184774929883261,5.864491277316711,4.745035539592033,5.628926128713847,7.933426765216425,6.473601121581111,5.630212102147841,6.666749668834752,5.647153081849462
25.5,-2.018578521028319,0.74436968191903,0.7113624120002416,-0.42237403715180705,0.5176502953688159,1.3736766307701707,-0.06050048797665837,-0.06053549786068242,-0.7628143699782375,0.36427762836379035
25.6,-3.5744663628957385,-4.622004603559596,-4.299801636944652,-4.350014478887042,-6.540113652008624,-6.034194024991916,-5.725206457993259,-7.105320252364119,-3.8018873146362604,-4.135471787904378
25.700000000000003,-9.05439667483426,-11.438404803245538,-8.063546116932267,-11.073408346719335,-9.77508140801163,-8.478374403218549,-10.19075046345762,-9.669429484875648,-9.7938435831604,-11.408656154884003
25.8,-10.745145472309444,-10.011772920737014,-8.406261190088927,-10.732558843946276,-10.403363156547258,-10.128667542513707,-9.422724828990901,-8.693321442738798,-10.639120755923242,-9.191685492525679
25.900000000000002,-5.284471875370032,-5.278432312102061,-4.4077753776812845,-6.071304499866588,-5.522365063753231,-5.868558813776598,-5.758196759069552,-4.987952374730904,-5.086565149686761,-6.720396310587758
26.0,-0.4211671345600598,0.09654890458142888,-1.020988608856343,0.749181033347316,-0.8314856550577794,-1.511566799556102,1.6562293580759417,1.4112042889417564,1.243021253516925,-0.023147233098100635
26.1,5.254168974198118,6.163524341341116,6.8462562328628875,5.326951417584799,5.678411625029747,5.3094824505279385,6.167133404164641,5.270098981463098,4.96924364517972,6.333326119270704
26.200000000000003,9.218329488678952,11.39314952124543,7.977264391576414,8.159938830427071,11.375290962784252,9.284333980945378,10.001423913020906,7.91955858896108,9.930737855124775,8.714183087221263
26.3,9.054591424837255,10.47506308079167,8.398091999002016,9.277315059480381,9.966576568349533,8.877865810699976,9.382717376036785,9.760419947245127,9.056805133194628,9.618236645413567
26.400000000000002,6.313361191270156,6.2366078237940386,4.651581506607945,5.236948413955771,6.153891401482007,5.20711012124011,6.099723373120486,6.324089457983293,6.072998009401385,5.66498038048473
26.5,0.5717040113344096,0.5649575553184946,1.08000327012072,0.028636546177112584,0.7357283434463148,0.010064202182092979,0.9631483975706882,1.1811413453130666,-0.4754635023428683,0.1859166905120037
26.6,-6.090015582597688,-6.041203601669264,-6.418035540392755,-8.715459648585885,-7.030010324017437,-6.058668810685493,-6.004429827551636,-8.2810506525419,-6.235256564539244,-7.221777779045971
26.700000000000003,-10.130259593030623,-8.868815661048657,-9.699082098043851,-10.337854727132765,-8.462671043567793,-10.951064204769732,-9.206025587896455,-9.893530216861341,-8.809948121406498,-9.556328661232001
26.8,-9.084244039582522,-8.80110602245945,-10.53089749252585,-8.965562775822733,-10.024583975003186,-9.952909828420852,-8.8523418819503,-9.126888067091954,-8.056745039939116,-8.740519657576856
26.900000000000002,-7.158060362904571,-6.423113793944782,-5.96332077456065,-6.453017327089327,-6.19783445299894,-5.057123024490026,-5.938033412978471,-5.817757074445637,-6.001909867234405,-6.5256792242628965
27.0,1.202754895897248,-0.27557267241892397,-2.0650784497739845,-0.6212135969736089,-0.30777651897456826,1.1391764410310952,0.19968463592208852,-0.9677451353343411,-1.5170112694251379,-0.092378618262188
27.1,5.179887937235548,6.02029893958886,5.260088682127796,6.356577551649784,4.149842155890221,6.405105690499213,5.230239987344611,6.001112714510152,6.598867515800855,6.003172277909527
27.200000000000003,9.65852383806739,9.748320285490173,7.3987152226040305,7.314548712806138,10.098360737096673,7.909988098847219,9.744437263930015,10.439163680814215,10.576467753241968,8.544271272226622
27.3,11.077880631143856,7.734806986663017,8.956014334330941,8.966355835634905,9.482247486388273,10.219826673783427,8.362341965211204,8.935171670948655,7.704847730878254,9.959428254104674
27.400000000000002,5.331867097900999,5.977315233630864,4.068213335674006,6.430105336338408,6.592524252254858,7.350025657901185,6.317926636269455,5.751378334212259,4.726417743950187,6.036476802755836
27.5,0.0993245728638137,1.2802267836110393,-0.9817098505481774,0.13956017637480045,-2.6020034102452114,0.5565659362131984,0.25845773177053116,0.5974699013906511,0.4538053563217777,1.3023010672149844
27.6,-5.506302273317948,-4.961412071198832,-6.32574711417844,-5.528155374695518,-7.088933143112664,-4.7937583494187415,-6.270595903680106,-4.941025047635643,-7.355549073001068,-6.860681060880748
27.700000000000003,-8.379680165234399,-9.37720311045137,-10.54830243960042,-8.864302233355742,-8.844316622919065,-9.228273670190077,-9.089789516664096,-10.578424805725888,-10.530488158502823,-9.170876867736524
27.8,-8.553636571296522,-8.005684730955803,-8.415543190143568,-8.387331385339742,-9.507593743982033,-8.443743054326355,-8.733281936258802,-8.302377543048163,-9.07302246330936,-8.750995637972292
27.900000000000002,-5.06607678843575,-4.702216359991324,-7.616224524677088,-5.965174568794408,-5.251706689306795,-5.885425588537065,-5.655182766980704,-6.672942730178713,-6.382552212801312,-5.687548728521031
28.0,-0.15238438209175986,-0.10263763039435415,0.732434635371073,-0.6676742838133318,2.013652156741506,1.154073291785491,1.1681467332686397,-0.28313602807211935,1.5209374129282602,1.2401423402159113
28.1,3.6652507274082695,5.691545680885763,4.636996360618742,6.800903326027942,6.770786793273104,4.926153646398674,3.297016489858003,6.236392844815916,5.362485865261189,6.63634241061658
28.200000000000003,10.62660024258383,9.007703852797217,9.238068612249537,9.560532782157033,8.977123880869517,9.629253943863281,9.492913530710915,11.12004415889678,10.06201157704999,7.631656322051472
28.3,8.64134599031295,9.447712375954962,10.750518019961124,9.024547626135455,9.399322013218478,10.046635859238831,9.632400712222887,9.186539565414227,8.945227419810045,6.450344904682208
28.400000000000002,3.766172863404633,6.3637274600618765,4.76949341597863,5.198795097249754,5.783765364616484,5.889894907840112,6.334095893652871,7.011533009766113,4.9780040732527135,4.8243335306543145
28.5,-1.3227598505618916,0.19690108549857216,-2.1349202715478417,-1.2584445003707867,-1.1403586703225264,0.4788059893861878,0.7334990568490222,0.30572289528047775,1.7195816608038865,-1.1286410503202042
28.6,-5.570515839573977,-6.05362746348014,-6.491004348276631,-6.842914878082761,-6.083912987927282,-4.883153900474887,-6.10823261450316,-9.08637006077759,-6.744572926194667,-7.010428489928145
28.700000000000003,-10.11793139638958,-9.63363751261015,-10.872705669024526,-9.519979223485691,-10.741750875421548,-8.2906652030203,-9.100224821299664,-10.140940679824618,-9.021972973354337,-9.588272934264877
28.8,-11.277651124110733,-11.460318621282639,-10.534380742810821,-9.359342546673707,-10.36673338018565,-11.194454540593743,-9.06996543193945,-9.274275201756131,-9.608032569539555,-9.922362614509176
28.900000000000002,-5.519751393080696,-6.3221023704096755,-4.546220261995307,-7.162837218486628,-6.0407278839488,-4.543510776795024,-5.7965178610594075,-6.947496855551448,-4.5818202751542065,-5.183397658288556
29.0,0.1291188193454038,-0.3643071034721535,-0.13715636327804617,-0.9776088181587255,1.6133800923633408,-0.6034019237023606,0.4227603576782389,1.058307588614617,-0.9471537673191661,0.5486979101258185
29.1,4.339141462541115,6.899479067099012,3.9247124059453604,5.53830101563237,6.3630320027324645,4.85415588725399,7.617402440080473,7.5772277904733265,4.273405657288068,4.127603267777393
29.200000000000003,9.776169726998788,10.263376515064005,7.5579536428174094,10.191286142236294,9.76901943467989,9.49621144088578,8.804344091555263,9.254976136597614,9.444795748453458,9.556393432740247
29.3,10.356550000170843,10.012904968378976,9.963101758578127,8.744533653309215,9.744212513783394,9.41759522582215,8.356002645540922,9.398706565523504,9.310064948486277,8.349376519437065
29.400000000000002,4.437397153872549,6.473151706922874,4.898028109577868,6.128894299054052,5.226477474102638,4.830952200667936,7.1433749935028015,6.53023558563594,6.33527388719026,3.6521995047835816
29.5,-1.1842762448517585,-1.9741198712501955,-0.49535137146952424,0.20277487865928454,1.1099436993822314,1.903123070726267,1.001062075984375,0.8352111309986315,-0.4050956321566936,-0.5905211249865144
29.6,-5.028360189268729,-8.023955247812875,-5.691461076644887,-5.460088199203144,-4.381321984131243,-7.077685942938632,-5.408532220995761,-5.187265678284046,-6.798200929364494,-6.769360054306965
29.700000000000003,-10.99861207625681,-9.85709260441624,-9.636465251159152,-9.136993811618591,-9.265552007407246,-9.64854012455152,-6.501970745708034,-10.176446289989475,-10.829956171547343,-9.653902668917102
29.8,-9.291424562571812,-9.020118520740544,-8.979123000023723,-8.419219162148577,-8.941057166681908,-11.705675690746522,-7.051106995658867,-8.08091899533265,-10.671735226408078,-9.521381108833038
29.900000000000002,-4.6066640257849105,-8.303045288072768,-6.323519959062311,-7.09796437612469,-5.635534089516853,-8.452796426595704,-7.146131408672985,-6.038518325168926,-6.71422042480026,-5.758254171253575
30.0,-0.3900219011701761,-0.006194732388202577,-2.640530445325594,0.31937087961407234,0.3452359336645656,-2.186031032291103,0.07216694318663605,-0.8113322454675859,0.31401511153420747,1.129663952266613
30.1,5.609696606849322,7.134942030831323,6.407363280477603,6.547425178183312,5.8667884544603695,6.878835076890002,6.477874350891222,6.331048333752877,4.356546006346077,6.272912582640344
30.200000000000003,8.076232509600274,7.949019913833036,8.738650143629858,7.270904303323261,10.879434131687832,10.784983616220943,12.52969754959993,8.067425338636067,9.359030546339584,10.411965271822977
30.3,11.07912282889359,10.198357288799993,11.627512895045115,8.631324416632886,8.695312074249971,9.7778248454418,9.362430109221439,11.464565705792031,9.71892609455364,9.063768702333974
30.400000000000002,5.935134048615769,4.691211904155918,5.705139490726375,5.198241928662793,6.766171435419885,5.022177992655494,4.796595917620543,6.3404573544980245,6.47059991837162,6.5770983806062855
30.5,-0.7765717967244208,-1.2018500351929813,-0.4338959063669638,2.4002016613866735,0.22097429965225965,0.9755135789092733,0.9626562700378989,-1.252736120056569,-0.19631909923982235,0.3781805199502711
30.6,-4.710083059250538,-5.597531458943479,-6.449698148826614,-6.662636625956907,-7.359736463658302,-4.871542993028953,-6.313156096496488,-6.781772960694849,-4.892536831165939,-6.86715313344391
30.700000000000003,-10.27089036951908,-10.605944424445186,-7.097624539462894,-9.697537922424486,-7.916257012663745,-8.156602307679046,-9.369809748701684,-10.751724393281288,-10.711292815418862,-7.654538824647804
30.8,-10.0367235765848,-9.69711659068947,-10.634359053539663,-9.867872029880356,-9.790734948459601,-9.772665059189968,-10.159165524189993,-7.791753308365061,-8.763234255103116,-9.55038287981126
30.900000000000002,-5.913368475169467,-6.980088384747834,-6.0253755812315575,-5.872197052335687,-7.140378089086542,-5.300923828458885,-5.403295821237612,-5.774601805452417,-5.675017145854018,-5.7943292453829605
31.0,1.4725613691312038,-1.2412242523214467,-1.6318350661197432,0.03260580955228189,-0.6080200414098526,-0.5440284681234733,-0.8224570017715578,1.6574324497101116,-1.5860474191979728,0.6618809101974729
31.1,5.128187258999411,5.729305448698982,4.13331942193874,6.405130900271763,4.207700441403595,4.373686292072659,6.129912740281261,5.7509986157352575,6.044422974202186,7.596713886908745
31.200000000000003,10.629794651327439,7.764998570961332,8.728952919660815,9.001777001380697,9.598159859279413,10.519663799493193,9.021686013262256,9.86237518539798,8.656876433460422,8.606859947743832
31.3,9.089101064250517,9.100021438344932,9.813544406838412,9.412276651525623,10.127624389604087,10.87424466981504,8.564366079794889,9.523130673887419,10.715475101420234,8.299077759305485
31.400000000000002,6.490516630049991,5.636192332842437,5.989875977143024,5.619694751315689,7.979476602235778,7.962311697164843,6.166390928312341,6.358747574562097,6.36581851077471,6.294558275825315
31.5,1.0065250892777153,1.1498059358430013,0.8675465038922611,-0.17502272937354496,-0.17668171107564054,0.19340624294674583,0.6714195177287227,-0.6058447117997335,-0.00047875199119226636,-0.5329746467439893
31.6,-5.4634932982716755,-5.208922641095848,-7.15470069161389,-4.746080218369166,-7.2457678006241375,-5.141160510645293,-6.962380343076374,-4.979829127704202,-4.673018412766075,-6.827407287607839
31.700000000000003,-11.106565560944697,-9.158951344458288,-10.218415670082056,-9.655003468317625,-10.514591577057201,-11.145793878920305,-9.387098399034201,-9.52536318166674,-12.801060699953824,-10.506508681858966
31.8,-10.098369197309603,-10.447155065730662,-11.146809418906745,-10.822388768897069,-8.807570087446983,-9.302666374782916,-8.293965967062503,-7.436527727686887,-9.81841387460753,-10.110462404863737
31.900000000000002,-4.959689694844961,-5.800045316550983,-5.829168206550338,-6.803595787229594,-3.793143372640829,-6.811423076522949,-5.1943713428980285,-6.985492601288667,-5.521769017279486,-6.120547103955133
32.0,0.734937873528718,0.6840215803032451,-1.0191602555353936,0.009555018749461366,1.363890718875917,-1.1189615536206292,-0.39112850037564983,0.08207083750312331,-1.27838788452825,0.747757700055139
32.1,5.797944001039974,6.996367514494622,5.989187182594542,5.46880306018524,4.642679067745454,5.581531381467745,4.1872492985901655,6.292122199434236,6.052485149936227,5.60485275069387
32.2,8.442862672602587,11.162226296975305,10.049341477539862,9.332577387894922,8.684999906442265,9.357022355012402,8.370063492668503,9.869705802655643,8.1282933575351,8.768569149027414
32.300000000000004,11.27821444867074,9.476118028554467,8.592588539680666,11.287696051505323,10.779713438226594,6.241171990019362,8.932103583891072,9.38005302449537,10.652369114902509,8.957143174970884
32.4,5.964229825533493,6.139170899930708,6.692217290556719,4.880066916341214,4.893752479626635,7.404113746825382,5.71606166613519,5.91533314761418,9.175982242527812,5.513323409899844
32.5,0.8586000311430482,-0.13127729550374392,0.8827370119731667,-1.0908456972699567,-0.5917076653875349,1.0913465218788825,-0.07932266800069641,0.25108996464320316,-0.08139687232351256,0.14697301788720418
32.6,-4.703139001922052,-4.883134377447655,-5.712746841307011,-5.446263312023915,-6.052345601870169,-6.726301371233382,-3.2392516977278834,-5.73796840129034,-6.338761796653509,-5.753728671585962
32.7,-8.337452102781889,-9.587715204395225,-8.498364806916488,-9.817880794081795,-10.39097316541584,-10.476922809296342,-8.683824765878336,-8.752518404495452,-10.525776820666062,-8.117997208105278
32.800000000000004,-11.41184905290278,-8.587986685587316,-7.68189102663223,-9.046066608914575,-9.76095443592717,-9.837292394958835,-9.640734582323836,-10.243141702773686,-9.704393349685047,-7.851296495187678
32.9,-7.472888499636661,-5.526580848761776,-5.834067116460023,-5.862875715584314,-5.055230381978065,-4.632062189757956,-5.410343773750499,-7.556494327447078,-5.135008535645214,-7.94522565521255
33.0,-0.03139746449675967,1.7991141818518577,-0.1992303209029888,-0.5690397291648929,0.05013977023136184,0.002283483493021892,0.5949798249408055,0.5377770530162328,-0.3801242151829626,0.3469388797585614
33.1,5.5573374139234755,5.76188254307875,5.1041799930007485,5.188940665794995,7.223654601052178,6.222031368820959,5.2848385639917925,6.525505668935398,5.6246234893763045,5.438302104486962
33.2,7.507467448620043,6.909242057180146,9.13874086222948,11.802461769342639,9.224579734551225,8.707623186210874,10.422322926211365,8.896813074713194,8.747838114102958,7.885239937367684
33.300000000000004,9.665841102350697,10.534569006572468,9.034162641200275,9.421397532266113,10.116913394194917,8.25973417276607,8.941735887063018,9.989321747060666,9.105395779871934,10.284556777895402
33.4,6.119105349996368,6.757720369623861,5.173647182791892,5.474882044829136,7.369919297814159,6.7346771569004655,5.522978075665638,6.049386256931083,5.674259867927305,5.85733002291698
33.5,1.5530933496679198,1.0374181359816677,1.1382989021062662,1.8098117681036865,0.8850721290657252,0.2015036864915282,-0.5775278818337678,0.047856919586339496,0.7932097006123475,-0.7456319314241503
33.6,-6.524287656815441,-5.661071163255114,-6.27905062092802,-3.7255239152709154,-4.782367258530876,-6.4678340433782235,-4.529604545530693,-6.2209516887900325,-5.630251755799588,-6.986492109023315
33.7,-8.224895561368271,-8.419796792216772,-10.70928466833038,-9.091942633711742,-8.286998223615875,-9.855202969597796,-9.66038637633039,-9.35357521663861,-9.24206568055718,-9.379787175076954
33.800000000000004,-9.983119344761956,-8.981334261975354,-7.220325907271907,-8.940761549724174,-9.951625591862904,-10.04306871804762,-7.740150239955467,-9.804480297648842,-9.812831785679776,-10.936770087931388
33.9,-6.37111394197452,-6.787827149550539,-5.1707967385851035,-6.760841197725995,-6.428937672836787,-5.732315711438298,-5.622972999725766,-5.971213144448571,-5.001706216994258,-6.076268195008541
34.0,0.17408228683663954,0.10178922128793536,-1.3269301901813435,0.4274849982938832,-0.9217213723271681,0.7753959997558761,-0.7069643143948795,0.8344575580515322,2.5788713619834867,-0.5676285215297426
34.1,6.013550626931461,6.4366086880049265,6.438489776178761,5.452549176169617,7.811559761769583,5.472830321351005,6.267448084435211,4.860196031219058,6.870450162146412,5.204519477835937
34.2,5.045836782015113,10.596223785435459,8.195963840981324,9.366340341583092,9.598808468708128,10.454081371171895,8.754794323249513,9.767335457118135,8.12665754849544,9.297442827015892
34.300000000000004,10.440824941369215,9.044917127362488,9.131091423609243,8.469991986777194,9.835698289541607,9.622018912980444,10.656439192572769,9.319762540099683,9.277282345802998,10.03104555500104
34.4,5.321126880776851,6.269891970532992,6.365033785759562,5.822174027303374,7.2875829986854335,4.522577338979081,4.180746662190921,6.1781012651301985,8.503232323889248,6.1485934263924555
34.5,0.8212742775662487,-0.38843043578100944,0.6537128976497282,-1.4151923444870573,-1.866060524525256,-0.7747922144616912,2.907429053118912,0.30913336782610057,0.596769216627743,0.5937591144710993
34.6,-7.549686640350725,-6.6043744993252105,-3.781882827065907,-4.388899309449577,-4.365919471679099,-5.917017714769131,-5.700234486773417,-5.443802233675325,-5.952215891465597,-5.435818764356384
34.7,-10.82175919880373,-7.561617532038092,-7.603191320968371,-9.927045679650496,-8.113129287815823,-10.280665636706917,-11.001798885638937,-9.848526078651817,-10.374070525525404,-8.533253215766633
34.800000000000004,-10.246133687022569,-9.361975884529043,-10.611722358869942,-8.920717824108765,-10.409595783449717,-8.48944129775689,-10.827555760661278,-10.836673703530591,-9.177599981917842,-9.791421240674444
34.9,-5.552003096618622,-5.999228840134226,-6.974994065683157,-6.7626799999864895,-7.2405248319674165,-6.0416109669651945,-6.139535679841255,-6.882442540602697,-6.872209298403712,-5.035591905092639
35.0,1.0904164090368695,-0.6671106146160279,-0.1884798165918498,-0.6453194048599246,-0.7944062631286816,0.44054304980799,0.2330626878476251,-0.6581263748389286,-1.3251949340398188,-0.8067141642748664
35.1,5.598129011943122,8.258697228352625,6.3942290029758695,7.107202974896552,5.766823551548484,5.724949991713117,4.460725111263869,5.832933342634081,6.0353288666853375,3.6180700900649456
35.2,9.023977880257977,9.160855446410375,8.90889259644943,7.533731490338322,10.84212225602281,8.148173257739415,9.733624250593532,10.719871399820637,10.17255985731268,9.143876016497284
35.300000000000004,7.000764762000219,10.252144851761093,8.338077593158339,8.159935625828043,9.933583371579747,9.258767307766236,9.833985156651272,9.089858958155855,8.968200360287065,10.351512206379443
35.4,5.193348354022339,6.515775073280589,5.0442362646368935,7.230438818054151,5.601350070159363,5.482137880369782,5.087873017222755,4.422423881476547,4.440209238126526,6.068514722162819
35.5,-0.7888171331831049,-1.1948576837384988,1.5211936801408157,1.6432961396025638,-0.01358092019244031,2.122595361593229,0.27226986210692644,1.3875417395343654,0.9920487732322897,2.4314184235484815
35.6,-6.122789917740532,-6.511246946781897,-4.7570551689672484,-7.210865380492203,-7.086543380050769,-6.037656970095345,-4.711296709949396,-5.719926142477262,-6.0827160083405305,-7.0247119514426295
35.7,-9.70893433828147,-9.905102562496312,-9.811620168668982,-9.666731762513242,-11.389700541103252,-8.224524539884987,-8.107762802747503,-9.267212243804103,-9.991676104263396,-9.742512716644121
35.800000000000004,-9.530615297708847,-8.320934320118926,-9.512001399362964,-10.127958199673651,-9.801037104534027,-9.356752238837947,-8.993763814150133,-10.160212152808585,-9.871249853923091,-8.897312149606957
35.9,-6.629273709005863,-4.048793968797483,-4.407890926923285,-4.969283127040425,-6.925599845769193,-4.819827276067347,-5.0798168968113195,-5.817960747926283,-6.431244548463155,-4.106319491420953
36.0,-0.6301837365319709,0.45761574275377154,0.48808848295202845,-0.3067486002204438,-0.9493576581387636,2.197621803281408,-1.9776475384761858,0.8951841254993654,-0.2072307249874865,1.5756715155093122
36.1,4.1105902993459855,6.1487323585330325,6.4078068280318705,6.051191895664631,5.849606264682565,7.181136498056061,7.363823526550381,6.469891890082416,5.6033198387354615,5.764322614001331
36.2,9.344503864614097,10.980823675244736,8.25042010093231,10.4922212771433,9.124835110984613,8.489891029271636,9.080974283963627,10.020863186239097,8.38922789223867,11.454083730921123
36.300000000000004,9.094126740536892,10.467346490317105,9.08049276295948,10.472882756275602,9.75935950617069,10.657458993091401,9.082233701766942,8.810345067138426,9.540981778684811,9.400989271419762
36.4,6.8172153976081535,5.304803885664713,6.090712749708501,5.684061344251782,4.763288099402777,5.833101427020745,6.133079217214881,5.846449320542474,6.007087818812648,6.37917516506616
36.5,0.011936486922227695,2.124693953496697,0.8888266274486204,-0.13309253493836318,0.07933590907379817,2.434913880981291,-2.1912334176452024,0.4773661480874027,-0.5687529788816341,-0.8382772754106481
36.6,-6.21182549054973,-4.469368895876765,-5.261597338710273,-7.105172127845789,-4.327153623659573,-5.812911057428454,-5.850507422288788,-5.866812254653357,-6.555982886204433,-6.516526916778752
36.7,-10.927699014496547,-9.773512436546206,-8.479458643162836,-8.512332450198954,-10.167708350233204,-9.496435127596026,-8.287657529286522,-10.37323531603178,-9.697605865329185,-11.210824333605727
36.800000000000004,-9.518265542850278,-9.357434208128877,-9.925748555682748,-10.02272851839097,-10.831044237911502,-11.220853258745134,-8.629006116931077,-9.003622981191445,-8.887219833958538,-9.83745526346014
36.9,-7.574602057984576,-7.266160774496209,-7.323707052876145,-6.319175426747115,-6.579929776696895,-5.097020677863546,-4.622993039706588,-8.29206943414354,-5.84046305595305,-7.057660711413111
37.0,-0.9406631324889039,1.58624918260356,-1.2493955309038622,-0.3229994777403323,-0.33446513632954283,-0.34773708861571284,-2.0030948429694386,-0.09555018206925543,0.8789317189316211,-1.0046716530635196
37.1,7.718241712650343,5.198046411733222,6.843351678416103,5.9304108347075015,7.054414109276107,5.441210607976222,6.380889517806206,3.8668257920089983,7.711367783938418,5.049476465684474
37.2,9.022047154001067,10.189583075542751,8.8848414488065,10.46516704819713,10.311014745441605,8.677939420765684,8.722485982947916,7.52586866367335,9.434728955281319,8.646581212006044
37.300000000000004,9.046151917536546,9.466273940043363,10.182570296185112,10.018203417080114,9.676951659003146,10.035649512780235,9.689615447570022,10.001290313756273,8.458577617790214,9.787877246230604
37.4,6.7543461053849345,6.973663890268472,4.80183891860935,5.372084364674065,6.189519611610676,7.468930624991398,4.663971813961915,7.850768738996543,4.20090246362641,7.2461883503488655
37.5,0.35969208409744996,-0.6941500427753073,0.4927388085855475,0.8299234942653639,1.6003413884966602,-0.26866501061571907,-1.078967128524864,-0.6174034374442267,1.5576710146189412,-1.3533775035244973
37.6,-5.325322164943661,-6.122687889306602,-5.9801921496388974,-4.949208837812128,-5.737461742035877,-6.206969972554554,-4.324348210277461,-6.428571683333595,-6.908366321157063,-5.644395473614144
37.7,-9.826085201286011,-9.848739507375566,-9.217103455709717,-9.667553632516595,-9.80627152589097,-10.138035649576356,-10.225396174211312,-8.668647681835573,-9.405000567544826,-8.574445347095173
37.800000000000004,-8.806282321976568,-9.23245663278073,-9.222780636998731,-9.400159534923883,-8.487534711211504,-9.622850057107868,-9.476576342444563,-9.257469789281556,-10.15943353544478,-11.268911002389567
37.9,-5.966537493106283,-5.3662767553933275,-6.0919403022199585,-5.198584098505021,-5.865815545886695,-6.775052071412525,-6.254930054852758,-4.215858453818724,-7.029826107697578,-6.01665708157322
38.0,1.0432052118229407,0.16834639537441531,-1.455629657282918,0.9871490454776126,1.4931211698930622,-1.0933017239633254,2.420822617185464,0.021298572691027483,0.9380075786277278,-2.067766250137126
38.1,8.334210750708376,6.538543723868191,2.6578128113881077,5.938195757657748,7.079483844249682,5.952854616796859,6.807098623448227,3.703700939758028,6.430643809395414,7.544228290486734
38.2,11.657647059627335,9.924257173152794,10.559561385188053,9.135083311329613,7.9815919745916615,8.847192039736754,10.58036079020035,7.965718067080619,9.806472162416988,8.14478353995069
38.300000000000004,10.217450635498768,10.816776957046315,8.295009810515811,10.443347339949518,9.306771378364568,9.851035666150805,8.961372471095808,8.739382173428229,9.895829056203858,10.693908822841099
38.400000000000006,4.8262538840660865,6.217447944441674,6.707620687646763,4.134696400309265,7.2251878873135835,4.297987564950367,4.002779792537611,5.690343554968146,6.445932632823966,4.63110286687048
38.5,1.6016979369936657,0.07954520157474698,-0.1432585259564576,-0.18328699491019693,-0.265409961819562,0.6046708812702164,1.4345652988826427,-1.5184716315127922,-0.27018688933545737,1.4037744085632966
38.6,-7.665357932382651,-6.035361494042663,-4.573840410486255,-4.826271294006277,-7.051738927369109,-5.11776054141058,-4.538316433954693,-6.676031578681485,-6.078592065999339,-3.275901062369237
38.7,-10.488904348605423,-9.102326932074243,-10.87207855644293,-9.38558799461117,-9.666551237583581,-9.69276686883998,-9.191359923184676,-11.600239170544675,-7.481611832290305,-8.809772985938837
38.800000000000004,-10.189203952927425,-10.175736431764212,-10.36521912710855,-8.218791996392344,-9.57208210296167,-8.51786511062739,-8.028526188826746,-10.91869691208895,-9.467383083934873,-10.829448178876541
38.900000000000006,-5.438064692882392,-3.7487515075026963,-5.173076921713872,-6.491816068059311,-5.782350698004314,-5.870633580206069,-4.593516297525104,-6.221654625185176,-5.321404296991316,-5.780614635357591
39.0,-0.32135151652534977,-1.5181358912927903,-2.254340512289228,1.0136146279487095,0.6569042184897306,-0.03666713301510133,-0.1101722788627087,0.6752981557650231,0.07376239917111871,-0.5981928383246404
39.1,5.183560932261068,6.1693879793731385,6.402925747717274,5.796646699762542,3.8462915218754965,6.733420595107896,5.6742442544389275,5.40859756597869,4.913747638574495,7.2232731491094775
39.2,10.179898953569616,8.629386351177986,8.013176455577849,8.368197576118522,9.399115655103758,7.479942936176393,10.65834782642944,10.013280721192341,11.148184976970947,8.74024453011402
39.300000000000004,7.9607793040151975,7.544314357725446,9.22806534047445,9.777698497286233,9.992397927298514,10.783451495634871,9.569001381397188,9.969614216478668,8.603628128290334,9.980798614076281
39.400000000000006,4.600623325970288,6.793080439358397,3.8234956669835882,4.39752657040423,5.529132093849878,6.297693537748266,4.079002669785545,5.179214070748641,6.028611017109887,5.627745531978027
39.5,0.2951941289828449,-0.7002368136468476,1.6048726546870675,-0.03261044018008091,-2.0937971837909624,1.2543721427624852,0.17330844642354287,1.0757325471659898,-0.06912700647066629,0.7124153293486423
39.6,-8.409349593020188,-5.322852601330755,-5.647713903217393,-3.8663000894992585,-4.92279029991651,-6.538647359072977,-5.292277252414103,-6.184232336930546,-6.959725202856324,-6.386881408575544
39.7,-7.732241136408235,-8.93653572690759,-9.597691077604592,-11.634477087473497,-10.508686567100728,-9.845991223507028,-9.310195746439142,-10.746944390200271,-10.349664252890893,-9.189507052365357
39.800000000000004,-8.964640845664952,-10.140611456220611,-9.689315179382083,-8.178365702284674,-11.421480297059643,-9.729554281332053,-9.648094997847096,-10.34996881823112,-10.608507865865812,-8.814748468991793
39.900000000000006,-6.3207262039576255,-6.803563345032768,-5.3739970211068036,-5.071923327831471,-5.132558555060955,-5.411652792913706,-5.903591402135282,-7.393055855809134,-4.914294400479684,-6.176772614319677
40.0,-0.8596093075702341,0.6852561751891342,-1.5410717732133932,-0.5170470813672396,0.9815656125867677,-2.4703788276068197,1.7913889751808079,1.8404194979045057,0.6662312543253296,-1.2706614753543901
40.1,4.464187244277622,6.971751562053139,6.6617886411027785,4.309042917374965,4.516111820332972,6.949838290190834,8.161056853574916,5.215819122353962,6.67565351986763,7.103834783826549
40.2,8.320591006532352,8.815169376822325,7.891981724044102,10.844020494495936,9.26635565342827,10.7988720734136,8.056880238842627,10.341716610572467,11.858983751390067,10.097065539904397
40.300000000000004,10.770939109670032,9.409916187533378,9.645881932813483,8.708968372995106,9.077846004720158,10.065796349109512,9.749144741056371,8.540662105409318,10.230518142440495,9.997586547935464
40.400000000000006,5.317103570358,4.70025412862135,5.2351227947325105,6.191773233165842,4.623965617497502,6.256107820488609,5.72755029070293,6.267896197197495,4.582306417697343,3.956065770293215
40.5,0.21723817727264422,-0.8179714887938806,0.14273493664079256,0.777813159777612,-1.0321618189481794,0.16058170099883218,-0.0951296959282814,-0.05354736261130911,1.8606376390071284,0.7257557713265563
40.6,-4.676472990812544,-4.828928630542243,-5.5890027675210066,-5.496847398619636,-6.355159358907381,-7.042639717616141,-6.7399394072881025,-7.411581193845549,-4.566776279981094,-5.365002750647099
40.7,-11.576536234154798,-8.84690806259456,-9.318710247633106,-11.088744623173717,-10.470404352493585,-8.066672385075513,-10.31472627433649,-7.525729975266885,-10.229760938025075,-10.341429254658902
40.800000000000004,-10.09970158515308,-8.334394398091476,-9.79705968301844,-8.838981958841057,-10.007799397643051,-10.675776963296112,-7.570624019847954,-11.568655040146037,-10.362192894826212,-9.608129041901392
40.900000000000006,-5.5388877381523525,-7.252073435990157,-5.597880182040824,-5.21742022886455,-6.701643346488914,-6.840178793407635,-6.464925148755375,-6.19092227914328,-4.60017093301993,-6.011293099350285
41.0,0.29795893741411567,-0.6289608792480724,1.601534336651263,-0.26095841482288956,-0.8628701183119358,-1.1934009952372375,-1.9249867389361894,0.043129057566386846,0.4271939723812182,-0.01574327407075293
41.1,5.786537161769311,6.4147902996714725,4.743396493864484,6.3964848672176196,4.3495049588652215,5.877153255698824,6.148492166577042,7.633182961399713,5.676108556542366,5.208055394794635
41.2,9.862763228886557,8.05554715481046,8.759675593562134,9.441899833459052,9.717085710922367,9.384127340090558,9.3999217570007,8.557462402034773,7.905151644863636,9.077754154024756
41.300000000000004,9.908839499921896,8.160377987981336,8.997405546351109,9.134957695970598,9.813667737721222,9.593582387865075,7.3645514390859255,8.662747475669613,8.110987366200066,9.203065079416199
41.400000000000006,6.869732020408724,5.253758482378806,6.9192901881466575,6.253592491281395,6.0622381217797585,3.504707048913794,6.5565582821550565,6.452656203606489,6.6302214384015326,6.165870549125913
41.5,0.6349640992343965,-0.2511202276293686,1.4075799014724177,0.7945112311831247,-0.7975935955191731,0.6064197463620423,-0.11787284622046926,-0.952269931880702,-0.4535564468630649,-1.5014688138017884
41.6,-6.621180117473225,-5.7596885865024605,-5.124882646538611,-2.776936916418829,-5.625594781906334,-7.35294810006144,-4.919790229508374,-5.918776796087507,-6.465047395108016,-5.390862314415231
41.7,-8.409985590451424,-9.284651997196264,-9.689306796507136,-8.983706732199494,-10.521197682128301,-8.70876547991441,-10.82878855403543,-10.568361453372093,-9.43022597706081,-9.531005015707475
41.800000000000004,-10.013676899310735,-10.060369400869684,-9.434098133278292,-10.766260297536896,-10.05593367795367,-8.66844254423883,-9.924049323397028,-9.154633884440571,-10.592329661558788,-9.237025145294945
41.900000000000006,-4.945938665720002,-4.5901197825401985,-5.3259758230313246,-5.364154299889811,-4.039919237527584,-6.420576480364177,-7.1586181629490575,-4.199193143703159,-7.435345627260939,-7.6209454550989655
42.0,-2.149912416905682,1.654363318470931,-1.0431369769463015,-0.31206205674610377,-1.0753350792290035,-0.23114487009010312,-0.4818992750141583,1.1262063070056823,1.3645493178774621,-0.37022059424319714
42.1,5.406107609008146,4.527153410455095,5.9001952215083,7.119856005322079,3.994735696637401,5.486187888042249,5.270873270596013,6.77230495058924,5.707856152362175,4.578271080149389
42.2,7.257313514424206,11.759160202333948,9.357066721405232,8.901798397366818,12.629242666436543,10.093220310317825,9.216260551727842,10.599086690320089,10.941520936289496,10.140755193199137
42.300000000000004,9.483306546697852,8.132390733260578,8.16598200850154,10.00291556145314,10.216642533579815,10.152668923285912,9.91299887153545,10.58833425525004,10.066189200386345,10.130419321091152
42.400000000000006,6.206659371560624,6.544088854652503,5.88518575812759,6.864878329649954,5.245773746424346,6.60987262140582,4.262248655954012,6.030861542346567,5.359400306381812,6.650794613087907
42.5,1.0533947481571944,-0.46088326636913096,0.42046388152888925,-1.0231123915098337,0.3187934375220923,-0.10515618479924634,-0.8368708376106834,1.2554834794410317,0.5853423701717072,-1.1344650892072385
42.6,-6.727014774081889,-5.421369293495282,-5.882297325767663,-5.25299733414402,-6.2638280446848595,-8.649483563957217,-6.039636685634184,-6.399603055151767,-7.036307987978377,-5.154236475539239
42.7,-6.722866624145039,-9.251315185450428,-9.049533411506003,-7.846564881404914,-7.997012033213043,-8.2339563435927,-10.00248107872626,-9.183471092713054,-8.877551420272553,-10.554422450381116
42.800000000000004,-9.21275380840176,-9.346532808082024,-9.922321316051375,-9.900356244877877,-10.972979989370698,-9.018351934262801,-11.201052972319568,-9.57984800218117,-9.247576462474846,-8.165925778863027
42.900000000000006,-5.8347960293170615,-6.174266214553484,-5.506019431217176,-5.021200827548861,-7.041017930415703,-6.134720689933521,-5.502802292582609,-4.484939426811044,-6.443228499025534,-5.676096256414916
43.0,1.4593715737526403,-1.4387958425797425,0.545702245297218,-0.8232363809049208,1.7819061005370123,0.2428765397693097,0.7798477366200108,0.9773791341077969,-1.104283224073995,-0.12640736303059724
43.1,5.270815047760321,4.486980052810676,5.291458494941816,4.152557250257203,5.928012740454825,8.792586371659148,5.924454321794282,5.54733854112133,4.449062878544833,6.965816171680474
43.2,11.19020854151128,8.857452658263048,9.280413332434579,8.06598847067223,9.282436622536864,10.22907244703365,10.096426245257778,9.338758609974105,10.837754726781212,9.201302210244448
43.300000000000004,9.007622964802978,10.253274986996683,9.078164426870368,8.547749258718731,10.635471410034238,10.409460586649615,7.834250991711637,8.72870082723329,9.520478530836778,10.315222970532991
43.400000000000006,7.006454153806452,5.735973120254993,7.259259471981958,4.8449249927940095,5.461743246503979,6.440936992015134,4.7736926213950674,7.0075363332871525,6.4725736802751666,6.529143041287439
43.5,-2.045738297979396,1.5183916760249607,0.5818368211274477,0.17162340186210154,0.3751756948151584,-0.1285889146070884,0.3072445912244992,0.8916278692242788,0.10450934757372167,0.22096721039566158
43.6,-5.414955438167332,-5.422940139646566,-7.17892305035313,-4.527781649199756,-4.872336975123011,-4.686688347927343,-3.961769715997239,-4.447136481934953,-6.9078053981146645,-4.974820133303597
43.7,-9.737003294111014,-9.191267684741327,-6.871935642071131,-9.944029524148972,-8.393750731220091,-11.952393694984863,-9.568735863732437,-10.410119677536866,-10.427348537133856,-10.011150626339695
43.800000000000004,-11.299870450393525,-8.464650296830412,-9.197533525532139,-10.803807387475814,-9.777451541133725,-9.27484194582493,-8.937809714535229,-10.958604447827064,-11.356445121060197,-10.328919693814093
43.900000000000006,-5.082722555219105,-5.361151744515285,-6.3685847388655565,-6.932413821966732,-6.068771449231516,-5.476170005581234,-8.08832763628371,-4.823007476710806,-5.766955135473735,-4.737078867261344
44.0,1.0361861287606182,-1.7192664909508564,0.385288288930582,-1.5688484068010637,0.2676463355779371,-0.6778605122658198,-2.1615417410118627,1.0877546840371894,0.019933553174891455,-0.25262220530845564
44.1,5.512303746319116,7.240672808627604,5.652318857402602,4.61022816695152,3.003333388408343,6.896420121173994,5.932716294294639,6.135756049062305,4.5912344077980025,6.299569841825166
44.2,9.518648654651656,9.655357247251358,8.790360453035804,11.013956247724137,8.858520065113183,8.211385489557765,9.095338608308305,10.35525234952379,10.511560823056838,10.868237120624098
44.300000000000004,9.608824502575747,9.71301905054678,10.693216571186339,9.259748180199058,9.87957312042028,8.824374162721375,8.70144756864075,10.262168228617558,9.358849568245896,10.394794048162472
44.400000000000006,8.792729676770582,5.503009425146996,7.333703436301595,6.004865878765623,6.028389422429095,7.609258214442468,7.206511433595495,7.087696853082826,4.5304982290728315,7.710781244940998
44.5,-0.12680255176011823,1.472518391172614,0.7038802255945332,1.153416433224419,-0.9476042212019761,1.6001779887368137,-0.831717604595501,-1.3632636178113364,0.9443071635791525,-0.4979051770161885
44.6,-5.429113856776403,-6.909376359385999,-6.223345710428433,-4.725954267932509,-7.710515495953159,-5.420725866761148,-4.302074071028421,-4.962580822472613,-6.012484363535617,-6.901328529987298
44.7,-10.223472279448137,-8.493110404910208,-8.578544685891071,-8.082899119381509,-9.535165360063107,-9.992184966297751,-9.089284331865,-7.687587593852849,-7.790022583951865,-9.316077448765434
44.800000000000004,-10.194920096128406,-11.729234301342307,-9.23186707140545,-10.721627150619646,-7.666734733624234,-9.603824275513789,-10.789602226634656,-9.85621416810516,-9.458281389815957,-8.94561552292204
44.900000000000006,-4.501472334418259,-6.020766974507214,-5.162624499221108,-7.815120601542235,-5.9813212474336055,-4.191981356641493,-6.983835500577171,-4.935339352172654,-7.761633083830109,-5.912764758071708
45.0,1.5281550201100016,0.2860179715812707,2.3461946212154627,2.0292296037273636,-0.14343448558538532,0.792504602103408,-0.6607424634760467,0.10439959229653493,0.7589070382589225,0.1388502682372405
45.1,6.797438384046119,4.8865452193327865,7.334305859981446,4.586428350373459,5.929742729166164,5.816210132722726,6.034053383854185,5.476763074391805,5.622442277402996,4.544088645265715
45.2,8.143309358921744,11.984009277018465,10.809577386565328,10.481311880622576,10.115325943226924,10.000276596624,10.563435265770124,8.666915872058524,9.933808370711867,10.840819279421751
45.300000000000004,9.033369625188675,8.747024658107183,9.77782834149207,8.54926332819943,8.738047630973696,8.06598956329013,10.243696777525992,10.057730082775407,10.712482933372591,8.546042377060562
45.400000000000006,4.117452999479679,7.214970114495013,6.464091146088222,5.950700358745934,7.24088561707186,3.63100917388405,5.4098771677342326,5.035092604231427,6.04833198907527,5.544536418005153
45.5,-2.4085434011174462,2.7849204284467524,-0.45464502942979124,-0.12634945918268836,-0.28836433493838803,0.7989220531648283,-1.1578404461670964,-0.9456073461790628,0.10427772053751332,0.573142162511102
45.6,-5.164337982359653,-6.790055502401991,-5.843791660507832,-6.591351187756817,-4.820689627065811,-5.478836933707271,-7.29548425930358,-5.580027474118565,-6.632695368446932,-4.648070657154654
45.7,-9.734989470286365,-9.48454649501673,-9.380458840356859,-9.1369155698891,-8.369256523123758,-9.04414539931517,-10.243850148568267,-8.753214070057329,-8.997396691938985,-7.984591813692805
45.800000000000004,-10.17394274171904,-9.346039226356732,-8.003854397092288,-11.167134437671645,-6.557945437374825,-10.574071703263607,-8.619162396332474,-9.69097599359725,-9.354344231260471,-8.390636151554919
45.900000000000006,-7.340096688740203,-6.54797507663406,-6.645493555526831,-6.462103846467583,-4.932335358796004,-5.249389615871316,-5.693977210425377,-4.78984593286466,-7.034689127845341,-6.9581404912933795
46.0,0.049842050921520484,-1.0967551930583526,-0.828298448182904,1.3502187899674423,-2.136377596351667,0.266459611813323,0.6359784740050721,0.5390247156770924,0.7460108035590594,-1.417502720033101
46.1,6.238826774362569,5.361893663694978,5.190878665605701,4.76742239428509,4.926169808749551,3.9036600462996107,6.9993232957705995,6.3235075662715605,3.9201031479177866,7.455298349107428
46.2,8.908089866707876,9.117765782811993,9.996240931507575,9.391003912042066,10.390018014040674,10.846062136242711,10.670792300730444,9.327262436657906,7.868276822301484,9.090542110165432
46.300000000000004,10.49845088136572,9.81451377682372,8.79557342631209,9.11410947307065,11.024478833397117,9.222087159613114,9.871458816610346,9.964575217560935,9.648432688105707,8.93798080918103
46.400000000000006,6.011846991740038,5.676743269816714,5.393429081155278,5.388293504192065,5.305321197642472,5.695266808707257,5.749134423255423,5.132433246555703,6.456273135631129,7.251282745069373
46.5,1.466081488447798,-0.14134595282832607,-0.44326771246025,-1.7116151153299735,-0.3130160786879678,0.6541262205785479,0.10356951850559604,0.30988811414825435,-0.33150623681299457,1.005449567610733
46.6,-5.774755042407589,-7.127793354238705,-6.142260025127982,-6.97394892066999,-4.772648271884914,-6.691586725823476,-7.4344749293923575,-6.832812852707037,-5.789292271717136,-6.073962941904812
46.7,-9.611399254391968,-8.869673439867006,-9.691336438220336,-7.740152603068831,-9.7164219496798,-8.470448222616206,-10.388214883875545,-9.972039124665955,-9.072471704974243,-9.900001029144239
46.800000000000004,-8.680668341918599,-9.705020925801035,-8.731216406635983,-10.360636587618941,-8.381975690881413,-10.305621546546057,-9.57732694289455,-7.752884456918574,-9.424117000322441,-9.23507581073265
46.900000000000006,-5.679849828347284,-6.125006456954145,-6.11588458541881,-4.813543615012482,-6.7597434428876735,-6.3672334507187625,-6.30173710183805,-5.356248715738385,-5.962966242227688,-5.702246761369782
47.0,-0.37374629019988453,-1.3884629258899768,-0.7022642933329069,-1.0000552336210944,1.0647682239650134,-1.8016141171345457,-0.29358256029982494,-0.6792085518351991,-0.8070211479288891,-2.0667554417409235
47.1,6.350583099836022,6.295980645348516,5.652439555142026,6.097931802058136,7.363239584951014,5.856376411023512,7.229478450058403,5.401976821973232,6.360064773383493,7.375420082192647
47.2,10.685315194410075,10.404391709505347,6.8129965783102655,10.206777696407155,10.031094324093207,8.767505453816543,11.850680152827291,9.146345648192014,10.045103602026597,8.823223596929724
47.300000000000004,8.59278965772627,8.39211372068382,10.783862008044085,9.977759193536105,9.516931207572538,9.302859893026758,8.70074727527712,8.756334789549818,9.78532577353003,11.430172635429656
47.400000000000006,4.969286704178928,5.234207064921624,5.110523269986957,6.286511809798669,6.3260124163618885,5.422575912343482,6.999987018712275,5.5241083243064635,4.518323151968881,6.325503110761881
47.5,0.6770048532276025,0.7952744084939356,0.6083417658694786,1.0652821837807047,0.17041666262810584,-1.5391060610281737,0.22529919142066304,0.1289621528863111,1.2375382098723051,-0.3432290647129357
47.6,-6.899291725744829,-6.251385515100802,-6.645919065529642,-5.66681237119032,-4.04087759260758,-6.623287361699786,-3.94168347028309,-4.614168487617688,-5.742170985259243,-5.927523192916278
47.7,-11.230979891171389,-8.813148132280329,-10.035126742809215,-10.008866579866694,-10.8766937903634,-10.1379338760748,-8.790002539579845,-11.067568242145793,-9.50309105498001,-8.831078035556533
47.800000000000004,-8.617508720185874,-10.25186054663931,-10.228699131317795,-8.916901742809877,-10.516629087909758,-7.614930565195223,-8.564929946142302,-9.972373433450109,-7.914040540603446,-10.20433456071008
47.900000000000006,-3.2088411418712255,-6.095545121173281,-6.877025062914248,-5.5638970591436445,-5.076731664964779,-5.595739373840396,-3.0702321486475137,-6.34483152311062,-5.292421553960807,-6.928583833777138
48.0,-0.795988829569729,-1.04522177957566,-0.4345902764387594,-1.4289577363131063,1.2968362175591392,-0.9256698750169723,0.8216396830907577,0.7250457717227463,0.09585303656153445,0.587150418264065
48.1,6.622721262911448,4.835424686815637,7.844976305832249,6.528052983747043,7.188557893707171,4.6766568322255395,6.06568284162178,6.250672152075933,7.131347157109089,4.7969389862216065
48.2,11.109880603942246,10.253473320650242,9.36943330271309,8.514325541156348,11.024532781519778,9.94955272042983,8.569487472953265,10.087389540725065,10.4194968211211,11.001979952304314
48.300000000000004,9.702658999169056,9.757167900621505,8.610275313112222,9.936567553245958,9.260065432901191,9.961206585742087,9.727191571342907,9.208119562772257,10.184119830547498,8.68915456408165
48.400000000000006,5.262019340123156,6.0306923249431446,5.835810694395404,5.50669807417146,4.1552612945958725,4.330448074003892,6.061318417576344,6.171294350540979,4.688782032792382,5.850030839106093
48.5,1.2846023253289234,0.4594215864186189,1.008870027199425,-1.445127334756498,-0.1823163878187266,-0.9428496975072972,0.13052396078105963,1.0920014376393674,-0.9347410207208529,0.4397579542014277
48.6,-5.270204753702831,-7.881148450013007,-5.7081491340086465,-6.494348577492008,-8.613310514530097,-6.91229915297622,-5.5349109669825385,-3.9524305720381725,-6.615156947172041,-6.510664341024604
48.7,-10.999527811599402,-10.202298248348551,-9.975392944275804,-10.33456839087986,-7.07518525856633,-10.265429730965254,-9.21239059589691,-8.708547375599485,-10.272690905083227,-9.15784299160471
48.800000000000004,-9.298752064288587,-7.973603612187674,-8.678094521044253,-9.247644239940787,-9.037832621470873,-11.53778764631424,-9.241489025328864,-9.827363114859983,-8.481931715008274,-8.713928404020589
48.900000000000006,-4.754020412663474,-4.530949644159067,-7.304485044049363,-6.125158056801325,-5.021900183681411,-5.4730883424147025,-7.297308361788312,-5.4469401319536255,-5.291784525701672,-6.7136836554571255
49.0,0.6195222993454785,0.3530089432673256,1.0639450760366727,1.6481228556628222,-0.4689000817801663,-0.10627999950446648,1.5988903895924078,0.33546219382616693,-0.543738571623517,-0.7533673995076481
49.1,4.260034604282906,5.397459055482675,6.336118794836664,6.132835838198879,4.9048463799072355,5.763586838955421,4.94560417506652,5.396951633563377,6.355401808209869,5.222236732785126
49.2,11.704780642916733,10.871850351911181,9.546556267605878,11.035540768202818,10.092220763552485,10.075730965271742,9.064447657789747,9.30003573582356,8.73895166202189,10.143279493805387
49.300000000000004,9.006915142827696,9.246363276864972,9.177646393512191,10.944665462129569,9.52817250724506,10.82941285580299,11.190175176309584,10.635723529305585,9.054242536072838,9.628363151403445
49.400000000000006,5.178874800724225,6.63210201620969,6.878869877203165,5.427749629575128,6.760135806904104,7.671743245119919,6.770623494383555,7.59800407761046,6.056066264222377,4.941709345797716
49.5,2.0341926283221925,-1.1402021498452566,0.4858868565997114,-0.300418673366506,-1.6277256891256364,1.4919930903701837,-1.1324371792450865,-0.4686026185559824,0.1280948724288615,0.09408051742453485
49.6,-5.775292854452717,-4.737455881600293,-5.093408671244635,-6.671265088255959,-5.420002005988749,-6.18809447656305,-4.731744140519375,-5.158737364858032,-5.2328687686494675,-4.1460712846563395
49.7,-9.486655336677254,-9.745430647786812,-9.570434587489034,-9.05167635593161,-9.966412414515274,-9.239985299100974,-8.68313635950499,-9.665776001070213,-7.866985452948859,-8.885819993079654
49.800000000000004,-7.32871925181603,-8.183243449151506,-9.574698667122119,-9.806909354618245,-9.602117266845166,-9.767348934965892,-9.855784515398396,-10.061436791948843,-10.308466566186343,-10.6565228634186
49.900000000000006,-7.25440686727358,-5.177348354136427,-5.124800718231101,-7.768464064502847,-8.444128757714697,-6.37015987598156,-5.9824703495402405,-4.732185005704165,-6.201686002306111,-5.549809089570621
50.0,-1.6243997491294073,0.07361202047852174,0.29531275041491184,-0.2760377303641002,0.18192738786722698,-1.3109891227014365,-0.11497005895872181,0.24470552118318734,0.581207172210694,-1.1027669460112606
50.1,5.6260660628526535,5.407241285556051,5.799442686268806,5.972019533225688,6.448030604919444,6.13373109246279,7.058868048006699,7.672896356448925,5.662527100834421,7.5453585473688065
50.2,7.403180839911984,10.422111108432645,9.898912972782561,10.423869430668088,8.49727746967719,8.546334825234155,8.108951825335023,10.300511107590856,8.14958655667706,7.091616437620106
50.300000000000004,8.100317059176232,9.724960455413013,8.07300522591553,8.259315859600747,9.24670060043496,9.872615420090867,7.291622594290021,7.814907323674741,9.329018863753909,10.120169927458997
50.400000000000006,5.386021190174686,5.290884468949116,5.901077558170762,4.704053196302996,6.308424782970556,5.92646570677009,6.098045271443582,5.344450818890039,4.789346163518855,6.095238573498785
50.5,-0.5046550181799614,0.14208425204570993,0.0370699317260881,-0.46355672305496887,0.9651347238559289,1.2908638588565078,1.9254760816940124,0.16707183622473348,0.5918527001051079,0.4167613294063559
50.6,-5.752614409648386,-6.195542387758952,-6.448600167404459,-7.281681617594864,-5.001768078031129,-4.651687394730629,-7.757326882482556,-3.947713949366121,-5.520618145362935,-5.000877951127883
50.7,-10.24024111633055,-9.947770359338282,-9.554568569978583,-10.006956801494313,-8.206228379758775,-8.619473000574011,-10.029185517006132,-9.779637656683553,-9.540477238112825,-10.438491369991015
50.800000000000004,-10.435790064407195,-10.010280798928498,-8.922711827383058,-8.67941641424256,-10.19970325780961,-8.306468163405363,-9.948965196463643,-8.737461064695772,-10.680388573272081,-9.2097108580958
50.900000000000006,-5.297508109232966,-5.930540734397855,-4.324383067875127,-4.88333615572277,-5.784482912981238,-5.392841128557943,-6.026438092832379,-7.825345139500962,-7.117338869277619,-4.934102443860249
51.0,-0.6350656044698507,-0.9990026094129838,-1.159967715770766,-0.3055551107688577,-1.7341827341087803,0.9382836807329644,-0.7316371630484421,0.1218456179033298,-0.29111919841995354,-0.5650016525112489
51.1,3.805074619849119,5.594317134454388,6.9615583389592945,6.42855882243808,3.0981979148007777,7.206361141345722,7.8137126068618805,6.961656097468955,5.8122617941929065,5.872801965740102
51.2,10.655886359619197,9.508722938451829,10.813510455087696,10.494562550814255,8.710475763987102,9.27636078492239,9.754152588326129,9.747006385951133,10.737682646842767,10.26752232169783
51.300000000000004,10.693075263587764,9.031852410065154,8.572848888071324,8.519749674382236,8.386105631479209,9.83303026734126,10.340298927833556,8.963589314477398,10.301484733057015,10.238530850222064
51.400000000000006,6.644837284259979,7.102227036960659,5.060718372496503,6.849214777526868,5.734787702163551,6.03372202395305,4.815828703193753,7.418981148900371,8.02632234779425,4.314580389231044
51.5,0.7975543956939036,0.29130656194149135,0.5219988008477005,-0.8432331294892882,-0.330861433889413,-1.6968163864353683,1.266410157313762,-0.315364890313882,1.24938633280643,0.0033624715417660575
51.6,-6.306513303737225,-6.851106696140521,-5.989032490481225,-5.454643655307247,-5.899920226305528,-6.668097325124423,-5.262473830368395,-6.464737563151331,-6.046309034309843,-5.722471644991838
51.7,-8.758801394424456,-7.468628173672737,-9.592161869324597,-9.288902185120376,-8.24407377521226,-8.917971505608747,-11.354498567338,-8.72977500437917,-10.092705412148952,-10.935858641869942
51.800000000000004,-10.188595159399314,-10.57610130016259,-8.614608646263678,-9.393961312720613,-10.472783415070637,-11.13430168971455,-9.440248933827323,-10.420945568417245,-9.71839478647296,-9.230571821447278
51.900000000000006,-5.255475751600755,-6.133920110486302,-7.77268875730473,-5.4424003738330855,-6.138517209351876,-6.137455983636509,-5.591708044698021,-6.260843063803355,-5.375395616683075,-6.591785627809211
52.0,0.42716882016321567,-0.23541608756696375,-0.27835235285413634,0.8056537355508718,-0.12865726377145695,1.5705360988933037,0.40887784371365493,-1.1876866183003147,0.819839938503055,0.6989145415841105
52.1,5.6115255148006815,6.195701183530352,5.758463128303314,6.601372830365785,5.479762931140405,4.746367112581173,7.769227830132408,6.217439526767641,4.1596034237158985,5.366199048704517
52.2,11.41756496320963,10.526377386420108,10.101069851307651,11.069854035505742,10.172192660839839,10.140918760191646,8.696739197647293,8.6776742040463,10.41820265952714,8.08871133531837
52.300000000000004,11.045420373761079,8.25766563318831,9.753166412788723,7.955339588804744,9.753690273918762,10.245925903185448,9.539446472865219,9.639795182156467,9.053868976591138,10.186862923230878
52.400000000000006,6.7028018193748204,5.388565275543989,6.0700357420980335,5.296912654914319,5.5902395012770665,7.465043638556686,5.998678113801653,4.016716795804311,6.242637118615392,5.51457306856693
52.5,1.5790957029742445,-0.3589217513798739,1.02114039732841,-0.2805610651524678,0.9865516026527836,-1.9017660253383426,-0.09358315543025994,0.2664909411795507,1.7561067319852546,0.10357851857886523
52.6,-6.37210676021729,-5.55819590274971,-6.838425953365785,-5.9918624921627215,-4.7696691633798745,-5.4006638656701895,-7.226830788648565,-5.326831991919885,-5.52066472534492,-6.902753916122805
52.7,-9.680096321694977,-9.354114866023751,-11.276092865804364,-9.600805528290643,-9.880081106004763,-10.380639390363438,-10.222975941118111,-10.530776551567946,-9.7005231141647,-8.514097884381611
52.800000000000004,-7.156138052516912,-9.539187079808253,-10.684920828594905,-9.84091387647522,-9.346075528020673,-11.313743530243585,-10.957063405486991,-9.694128750387199,-9.128165282718706,-9.091059033527149
52.900000000000006,-7.148786663674461,-4.30050704421008,-5.751534488099603,-5.7333531327900555,-6.238476734999991,-6.518353041777756,-6.265769512869708,-5.149634859997627,-5.397857300065698,-4.2644911807183465
53.0,-1.59212479989077,0.6200715694252775,-0.15731504998048523,0.45133019792866785,-0.5402495496860881,-0.38415830792378947,-1.3625442126284002,0.7537674505565248,-0.9640917773255897,-0.7855375047178966
53.1,4.596547577166703,6.624126361029676,4.632571202119802,5.138203677307783,6.78613902139533,5.364999058488493,5.171068690632053,4.107443222147178,5.637333538429826,6.881566702187321
53.2,8.466023955211293,9.634746694802285,9.398526099345135,9.1805282422473,7.986343423314743,8.69643459660672,9.126037365781642,9.974038436101957,8.793691849073861,10.159166912391983
53.300000000000004,9.299015950977552,9.085838479619506,9.827454810265436,9.03496317024159,8.27210803923072,9.946173585926141,8.26347675537286,8.691309142450805,9.682088315913997,8.209730963368283
53.400000000000006,5.400871225956232,6.530750102741404,4.489396724820772,4.762866676931197,6.2296088332425885,7.036554335207134,7.1964305596394595,5.140982200108823,5.9315580616185475,5.744867566202139
53.5,0.2885981196487985,0.7002834678831508,-1.5834262542709177,0.5752510022935673,0.8624596967914029,1.20284000493467,-0.7889088905307041,-0.7842187785826797,0.4028954944686908,-1.166224774813514
53.6,-5.61943141923065,-5.3808362310857785,-2.9913074357836718,-6.028129107865791,-6.46518964699141,-5.970035691358651,-7.4057637107555605,-7.131806883811234,-5.871533250427736,-5.386439646095742
53.7,-10.631426981066907,-10.23737165922303,-11.626935344295209,-9.145427999244431,-10.202505419320394,-10.93336416110168,-8.873188358478853,-8.736736231690532,-9.735827352712294,-12.208028151084633
53.800000000000004,-10.189526726152792,-8.992930452092569,-10.328827238550701,-10.097693609966585,-7.660496126976619,-10.932916920708813,-9.58743261447576,-7.637352593148899,-9.947868080447389,-9.381216266969854
53.900000000000006,-6.303397087264751,-6.419234675561626,-6.291344400846413,-7.542170785374095,-6.567358392109684,-5.507983469441071,-5.654651735112952,-4.822096331856379,-5.900094552350834,-7.165140866850088
54.0,0.20966793791869817,0.46212871237587705,0.151418902157589,-2.067222882875268,0.22840501418840958,-1.3680003283833309,1.2406694098015607,1.681840682749038,-0.7457077779187095,-1.4133163625318679
54.1,5.151902748414484,5.803338686785607,7.770789786766258,4.556659705947629,5.399846521166533,6.698706095424687,5.389313696045114,4.550949039184058,7.867560343215001,4.7618713398466745
54.2,8.973442483325892,9.738616132776066,8.881795126308127,9.142586247788051,11.257815011532342,8.938728443689527,8.51321282324282,9.07464577383198,11.332672839150904,8.440223009584503
54.300000000000004,10.206674444996073,9.707417707369956,8.22650721389942,10.248053799378981,9.495984578471585,10.384951242446675,10.30524340183431,10.588173663610677,10.250103430807266,10.521754663660168
54.400000000000006,5.869875296807307,7.293856668553568,4.459773888700331,6.467870144049414,5.380555947532587,6.58083682855087,7.265632181520694,4.935193009187338,6.37087017320299,7.827507093864356
54.5,-0.07455771820058128,-1.2757646128168647,-0.2961982509262192,-0.41739201370988904,-0.8563525684409116,-1.319348241028152,-1.030032728056208,-0.3296901244639933,-1.5435019238032843,-1.8134043726113298
54.6,-6.033134913672025,-5.265407119650033,-5.764395777710487,-5.0645368147986325,-5.337099838325387,-4.881371674592913,-7.7567044850604185,-4.948362713323412,-5.652212404280247,-5.302564694142845
54.7,-8.874370791042546,-8.631956619887559,-8.316806356044872,-8.187447574782325,-10.483024789820671,-9.414756753116029,-11.12962226140466,-9.669076927189678,-7.532717730065537,-10.397568098904898
54.800000000000004,-7.7711040412795445,-10.651369058713158,-7.930897328577237,-9.253867640067249,-7.272719764352743,-11.037660391111475,-10.659569508403992,-9.191330671338966,-10.111301150320081,-6.297261678157373
54.900000000000006,-5.404881730221687,-4.693364679803366,-3.3210139984944838,-7.387637355248161,-7.672423750138861,-5.1460113760301995,-5.423851074621018,-5.454025468716043,-6.147519253646139,-4.661738772214088
55.0,0.36953535027232465,0.5053372361035625,2.042256678402253,1.2163152525840928,0.2116946887328925,0.5630836231441604,-0.28979837206195513,0.4182955018520171,-0.08349017985514046,-1.5721083957968875
55.1,5.559024183136905,5.267929350973442,5.02367116141331,6.13236503911049,4.542982514587855,5.761756348273264,5.255016473680074,6.575840588013146,6.887395866861338,3.750069634936678
55.2,8.9900934562143,8.74962712895925,8.489093270069738,8.453471521566104,9.664750543726827,10.83044002266137,9.390239698144256,8.63038317524347,10.841255681101522,8.73882767388114
55.300000000000004,9.050222940041662,9.788364562108265,8.502485792645567,10.19837614599976,9.883270322297466,11.301326307393163,9.022580737132795,8.556949625877733,9.687688035224927,9.612924487357407
55.400000000000006,7.114276326966005,4.936728210149583,6.6830694959679615,6.995057589756853,5.141218459578008,7.285600108492744,6.640998967361064,6.564692511894072,5.801307400238528,5.6399496643576645
55.5,-0.3793300671949948,-0.04408858681277904,0.479535916971248,0.18516653747494247,-1.9168697887098203,2.4712821596078434,0.0013799296726634803,-1.0318962488769488,2.1969854368149253,0.3737125111514262
55.6,-7.215919276894842,-6.3581566991727305,-5.440509757133769,-4.9109844342297535,-7.316279480650134,-5.9319159204648635,-5.1051990618980785,-6.629345298454029,-6.276320105629501,-5.2484074245728625
55.7,-8.379576051149407,-10.456526469055904,-9.34348454379871,-7.604591353725586,-7.960814534681504,-9.221828160425991,-9.612953283860756,-8.890668809844605,-10.345122179280754,-9.878895979835816
55.800000000000004,-10.088232941439403,-8.720992683216078,-9.049422444971835,-10.45777589696082,-8.364708448262903,-9.238776681663264,-7.651864198266105,-9.707203107624665,-8.477613865398972,-9.005600326296925
55.900000000000006,-7.2816276696390965,-5.683920224300811,-6.320557792637728,-5.5936177111300145,-7.519781119287781,-5.977736197096268,-6.246276237092861,-5.425703857195484,-4.86356332832759,-6.091877210995
56.0,1.0845856233134668,0.8326023924876043,-1.2259429001941988,-0.014205868606108741,0.9755928442026963,0.3971556378051046,1.9892801641501476,-1.0374331096717577,-1.0273057660076155,1.734170763512965
56.1,6.764118830762774,6.557028101770133,7.0665273429498825,4.428556775048724,6.6241592211761455,4.517005316137113,6.919106836618507,6.973911063761648,6.331909130035418,8.15676784440177
56.2,9.69994764359923,9.720376086286853,9.288350352957389,8.565079149943665,8.450021092657796,10.777045518620993,8.888453212809551,8.961241094457513,7.718787690541652,7.804824366991429
56.300000000000004,8.50321476679887,10.21690537283975,9.85969635118363,8.328176301375954,9.092957139972732,10.222328942530053,9.512040775774404,8.558269863590754,7.769620279605209,7.802275774571659
56.400000000000006,4.962733494329205,6.634627771946939,5.520896733018202,6.181984685582917,5.074732280834651,4.988099011190771,6.782868120975158,6.787600130769153,5.226590430618799,6.251786054788562
56.5,0.07609374211987008,0.8351903985399377,0.4370211478322385,1.445619557813264,-0.9320521218451298,-0.15203331087583882,0.2309113890497049,-0.3562322300854603,0.6927866503204472,0.20055484954112304
56.6,-5.59859242689052,-5.807675453061745,-6.10272439306945,-5.932008473734389,-3.805555416768903,-5.814819131731562,-6.269120947020905,-5.342122653408937,-6.712483723760821,-5.140316946244612
56.7,-9.961326443758244,-9.043377600728965,-9.798695991646158,-9.591119035812126,-10.94512407653929,-7.93060519328061,-9.735204140723354,-8.678914731553805,-11.612130837284823,-8.508727633932079
56.800000000000004,-9.44930810547441,-8.649215568626769,-9.579355588364093,-7.0842857688226,-11.031730518469136,-8.278907498240681,-9.376666948773211,-10.372299433219627,-9.453527660589103,-10.427764854934527
56.900000000000006,-5.571118922632611,-6.421777163466906,-5.579761937462534,-4.376414978683967,-7.605669461107642,-5.428615911379116,-6.08915146529927,-5.133945737317646,-4.444523728992147,-4.041181657914306
57.0,1.888409727690181,-0.35108731941272875,-0.3636358147835395,-1.9977704420267823,-1.0136239601604131,-0.7670072733980703,-0.41367627424789416,1.1440666783227862,0.9635964335430266,0.22654416864235005
57.1,7.2303506362892165,4.282850705040328,5.415393848080373,4.565851101270217,4.297837460693385,7.476146655650053,5.410140613586027,5.808561713813606,4.420251559312062,6.112625171160975
57.2,11.510974562127444,9.793350479286033,10.5229118211296,9.078964780645489,12.122684458248223,8.499284430012363,9.012958065439584,10.136752636599233,8.879316942006202,11.473262778518418
57.300000000000004,10.464537431253106,8.383650311572103,10.662774376114697,10.501458155831871,10.117793122916703,7.87443695463843,9.090567905203121,9.693224952540323,11.155935733937858,9.195673654323208
57.400000000000006,6.326851376041646,6.802348832810786,4.632156531775763,5.156148206995285,6.667504893776896,5.132618389151284,5.475075638574408,4.81998639000978,6.422906521766531,6.6927853639854185
57.5,-0.0525608911649514,0.3534286885642892,-0.4320731418101946,-1.6353854812951802,0.2865319220645933,-0.006544720188922473,0.4650814013658705,-0.44117492158295823,0.05446218635351437,-1.0878999991531437
57.6,-6.016528813293109,-5.580945105280776,-5.048043844639141,-5.4273556461188015,-7.431834176078982,-7.254790720207199,-5.019210275206601,-4.990210023657836,-6.379412410517849,-5.626431166790025
57.7,-9.714702677815948,-11.187729713387272,-10.278685054020768,-12.126304219241623,-10.455523630214605,-8.900399202717042,-9.783803995895248,-9.819755287866972,-8.435010386013236,-10.907535722519846
57.800000000000004,-9.86564513206866,-9.910861946203937,-10.7057803887263,-9.40025428915252,-9.317999968636581,-12.63949886563994,-7.482768688122146,-10.154111877536506,-9.149346847479894,-9.705029897918534
57.900000000000006,-5.548955756664259,-4.714666318452307,-6.329538540874049,-4.958938223888368,-6.469339040258782,-6.324309250313635,-6.3168334774264,-6.376685580026092,-5.494859012151522,-4.896835307522379
58.0,0.878076206073301,-1.219107916433146,0.7880926470245616,1.449682912089257,0.7234862210649204,-0.5186457249513752,-0.9312785291212112,-0.05864336676024847,-0.29405541115640266,0.9828146060263181
58.1,6.792638797803662,6.610524374080567,5.557701636624444,6.5828681017559685,5.579555717838531,6.014936869246663,5.162559299077217,5.065321062418426,5.140143561931783,6.203759827475657
58.2,8.988328143654728,8.281369644628965,9.963765935056797,9.95720747935343,8.490237507177074,9.096785038466153,11.034467955033895,10.525319045982982,9.342981733097067,10.669413083482842
58.300000000000004,9.594707034611085,8.921671681958834,8.585098850518058,9.507688045519773,9.531024350628048,7.848057087790684,9.391688072137136,9.043641027105387,8.51105429034558,8.52113074796439
58.400000000000006,6.613503833492011,5.110492786330332,6.4824045653018985,4.130970015567963,6.72560489332904,7.013536969439668,6.821659041472648,2.8973055600993023,5.281124610228437,5.839532238303555
58.5,-1.6963243243156378,0.29879308313566755,0.5880565430470512,-0.11566973266069178,2.04725624115693,0.5025774857660676,-1.1532399007068805,-0.5360931120804693,0.4386534304514088,0.7192779494051729
58.6,-9.421847035708984,-5.9956920136507215,-5.2534250710683335,-4.636260297333654,-5.697658948396007,-6.414632697151793,-5.340355245307872,-5.249060002958765,-4.7243188359431825,-7.49209979063715
58.7,-8.747802321518085,-10.637230836764973,-10.400958296364776,-9.77073315301603,-8.957352042788825,-9.302107728953878,-9.858551326291499,-7.841937737349325,-9.998857656175023,-7.647530235604707
58.800000000000004,-9.088458623570578,-11.11551848858716,-9.675368731455425,-8.530796591858643,-10.213509752550785,-9.71003576579321,-8.568143335099169,-9.66632403979641,-10.726039267856589,-8.766634039322929
58.900000000000006,-6.056109424560657,-3.602682433574372,-6.073707567627005,-4.815530794795615,-6.547856318731228,-5.230014673695039,-5.609937509896614,-4.121941652388347,-5.6454123643943035,-6.345258150682274
59.0,-1.3735469733195482,0.7420433768330762,0.6101168749164079,1.6436435936393283,0.25718901358904195,-1.7119441138409777,-0.803690553552774,-0.8586913921692491,-1.3308050625139751,0.4715987374210216
59.1,5.399141277452617,7.313710264275994,6.975771568651004,7.147496542210556,6.4436063692998795,5.93853252757971,5.180034829830016,5.000691170641453,6.832484899754334,5.708042222982646
59.2,8.857854062643677,8.470359355285119,8.560956016237366,10.539359209582324,10.030613110579104,10.14006879178053,9.283640447866086,10.07846205531638,10.002265747353503,8.70689148597248
59.300000000000004,10.172760767161414,9.86616817718948,10.70887469112207,10.439240541204724,9.366904373323607,8.20121382093117,9.136730064663148,9.974343700343242,9.298102965629116,11.628141333160947
59.400000000000006,6.395246397073043,5.550172785900083,5.7960082205767485,5.025978538220619,5.298737952845813,6.429680744245916,6.404974780971033,6.892029054298838,5.926923377509485,4.417776190947621
59.5,0.30414873480350546,-0.4347503558574434,-0.247960379322789,0.31312694417477555,-0.5276274453770067,-0.9085508864166352,0.06958503727438227,0.4394175214265752,-0.6274486072941206,-0.475790644109753
59.6,-5.5141607322841635,-5.566792614021263,-6.2450149307895595,-6.617689275943079,-4.626687490477736,-4.013740508062369,-6.036666709656731,-6.263783525325049,-6.41988341839522,-3.91755638215305
59.7,-10.456565307342313,-10.233485879137032,-9.735884923220063,-9.761412578334975,-10.110302325101927,-9.608188069411444,-10.67555552700085,-9.954983741510821,-9.278243735308074,-9.242228907424545
59.800000000000004,-9.271011119416748,-9.916315935940986,-10.179650704707264,-9.832250883045374,-8.595566212251887,-10.848938796211387,-8.314755009813423,-8.955068831681546,-9.000055672547775,-10.600755025724444
59.900000000000006,-6.141461349735016,-4.479777916624423,-4.624852241951576,-7.87937148431536,-4.005797977974651,-7.019022800161886,-6.197235496246403,-5.945272996937196,-5.076305699381288,-5.940938308714854
60.0,3.6921368128361514,7.6792236995587615,-6.817746813219025,1.1755357654576528,8.253334418158587,-3.2003090362823365,-1.9338460464985352,6.136842723981902,6.430839347674453,1.77209325870946
60.1,10.401176010303633,6.362923012664615,1.7332274052796932,4.8107625280464115,4.6059456652044135,-2.572912663722694,-6.504007778649004,-4.478196218471405,-1.9676479653279078,-3.321861393508065
60.2,2.4948640407291047,0.8162232213565572,-10.62249350080008,2.862683151589582,5.174002584730869,6.565994891197558,2.4317155755626887,-10.53243223987905,-4.462887544897552,3.039694026072947
60.300000000000004,-5.987314046895593,-5.339968228583808,0.7989768101554434,0.07833704656314612,4.6155008158493205,1.122379350535677,-1.8039976473781445,-6.119561705616618,-1.0383428247141069,4.00168463088064
60.400000000000006,-0.804598129795549,4.657943607546056,1.2700594180617426,-3.435131253853304,-2.220635729961624,7.830161661316898,-6.9037539089419075,-1.6160280863471366,0.20724224131016752,-1.3876237677073657
60.5,4.712165089812956,-0.05197124871104188,3.117643270198041,-7.204425221103524,8.864236997500363,2.2721833211985345,4.003141030966613,-7.5571274628388485,-0.8116912444729503,1.2422189685176306
